Theta [deg.]  Phi   [deg.]  Abs(Dir.)[      ]   Abs(Theta)[      ]  Phase(Theta)[deg.]  Abs(Phi  )[      ]  Phase(Phi  )[deg.]  Ax.Ratio[      ]    
------------------------------------------------------------------------------------------------------------------------------------------------------
-180.000         -90.000            3.345e-02           1.199e-08              43.447           3.345e-02              68.792           3.162e+02     
-179.000         -90.000            3.733e-02           4.205e-03              19.128           3.312e-02              68.238           3.929e+00     
-178.000         -90.000            4.763e-02           1.546e-02              19.226           3.217e-02              66.571           2.505e+00     
-177.000         -90.000            6.090e-02           3.017e-02              19.437           3.073e-02              63.768           2.455e+00     
-176.000         -90.000            7.266e-02           4.367e-02              19.789           2.899e-02              59.805           2.822e+00     
-175.000         -90.000            7.888e-02           5.172e-02              20.348           2.716e-02              54.678           3.441e+00     
-174.000         -90.000            7.729e-02           5.182e-02              21.236           2.547e-02              48.435           4.429e+00     
-173.000         -90.000            6.815e-02           4.404e-02              22.696           2.410e-02              41.208           6.432e+00     
-172.000         -90.000            5.412e-02           3.094e-02              25.271           2.318e-02              33.231           1.453e+01     
-171.000         -90.000            3.944e-02           1.670e-02              30.471           2.274e-02              24.820           2.050e+01     
-170.000         -90.000            2.854e-02           5.804e-03              44.312           2.274e-02              16.319           5.097e+00     
-169.000         -90.000            2.461e-02           1.577e-03              99.963           2.303e-02               8.015           3.824e+00     
-168.000         -90.000            2.859e-02           5.170e-03             160.405           2.342e-02               0.091           7.582e+00     
-167.000         -90.000            3.894e-02           1.524e-02             175.826           2.370e-02             352.615           3.656e+01     
-166.000         -90.000            5.208e-02           2.843e-02             181.949           2.365e-02             345.561           6.975e+00     
-165.000         -90.000            6.359e-02           4.048e-02             185.631           2.311e-02             338.835           4.384e+00     
-164.000         -90.000            6.959e-02           4.762e-02             188.682           2.198e-02             332.305           3.327e+00     
-163.000         -90.000            6.797e-02           4.772e-02             191.995           2.025e-02             325.810           2.653e+00     
