Theta [deg.]  Phi   [deg.]  Abs(Dir.)[      ]   Abs(Theta)[      ]  Phase(Theta)[deg.]  Abs(Phi  )[      ]  Phase(Phi  )[deg.]  Ax.Ratio[      ]    
------------------------------------------------------------------------------------------------------------------------------------------------------
-180.000         -90.000            1.756e-02           1.673e-07             191.029           1.756e-02              38.912           3.162e+02     
-179.000         -90.000            2.122e-02           3.825e-03             184.914           1.740e-02              38.250           4.513e+00     
-178.000         -90.000            3.075e-02           1.383e-02             185.064           1.691e-02              36.270           3.602e+00     
-177.000         -90.000            4.260e-02           2.643e-02             185.381           1.617e-02              32.995           4.208e+00     
-176.000         -90.000            5.236e-02           3.712e-02             185.919           1.524e-02              28.466           5.562e+00     
-175.000         -90.000            5.629e-02           4.208e-02             186.798           1.421e-02              22.749           8.256e+00     
-174.000         -90.000            5.271e-02           3.956e-02             188.258           1.315e-02              15.935           1.724e+01     
-173.000         -90.000            4.264e-02           3.054e-02             190.830           1.210e-02               8.124           4.697e+01     
-172.000         -90.000            2.941e-02           1.833e-02             195.888           1.108e-02             359.403           7.132e+00     
-171.000         -90.000            1.760e-02           7.513e-03             208.421           1.009e-02             349.796           2.893e+00     
-170.000         -90.000            1.138e-02           2.249e-03             252.322           9.131e-03             339.243           2.020e+00     
-169.000         -90.000            1.308e-02           4.835e-03             315.835           8.243e-03             327.596           1.006e+01     
-168.000         -90.000            2.236e-02           1.488e-02             335.575           7.485e-03             314.662           5.763e+00     
-167.000         -90.000            3.636e-02           2.941e-02             342.917           6.953e-03             300.343           3.470e+00     
-166.000         -90.000            5.064e-02           4.388e-02             346.924           6.762e-03             284.850           2.993e+00     
-165.000         -90.000            6.070e-02           5.368e-02             349.874           7.024e-03             268.871           2.809e+00     
-164.000         -90.000            6.360e-02           5.579e-02             352.806           7.815e-03             253.408           2.720e+00     
-163.000         -90.000            5.882e-02           4.966e-02             356.500           9.153e-03             239.331           2.735e+00     
