Theta [deg.]  Phi   [deg.]  Abs(Dir.)[      ]   Abs(Theta)[      ]  Phase(Theta)[deg.]  Abs(Phi  )[      ]  Phase(Phi  )[deg.]  Ax.Ratio[      ]    
------------------------------------------------------------------------------------------------------------------------------------------------------
-180.000         -90.000            4.428e-03           2.359e-06             341.542           4.426e-03             224.013           4.885e+01     
-179.000         -90.000            8.380e-03           3.915e-03             103.163           4.465e-03             224.012           1.769e+00     
-178.000         -90.000            1.826e-02           1.367e-02             104.225           4.582e-03             223.963           2.202e+00     
-177.000         -90.000            2.863e-02           2.387e-02             105.304           4.760e-03             223.724           2.681e+00     
-176.000         -90.000            3.386e-02           2.889e-02             106.965           4.973e-03             223.103           2.789e+00     
-175.000         -90.000            3.130e-02           2.612e-02             109.881           5.186e-03             221.906           2.502e+00     
-174.000         -90.000            2.270e-02           1.734e-02             115.710           5.362e-03             219.963           1.904e+00     
-173.000         -90.000            1.321e-02           7.742e-03             130.121           5.469e-03             217.149           1.199e+00     
-172.000         -90.000            8.475e-03           2.988e-03             174.438           5.487e-03             213.395           2.995e+00     
-171.000         -90.000            1.140e-02           5.994e-03             229.011           5.411e-03             208.689           5.588e+00     
-170.000         -90.000            2.055e-02           1.530e-02             248.152           5.251e-03             203.093           2.893e+00     
-169.000         -90.000            3.089e-02           2.587e-02             255.630           5.025e-03             196.739           2.809e+00     
-168.000         -90.000            3.662e-02           3.188e-02             259.713           4.745e-03             189.830           2.816e+00     
-167.000         -90.000            3.437e-02           2.995e-02             262.935           4.415e-03             182.608           2.655e+00     
-166.000         -90.000            2.505e-02           2.102e-02             266.957           4.031e-03             175.313           2.285e+00     
-165.000         -90.000            1.341e-02           9.825e-03             275.059           3.584e-03             168.137           1.809e+00     
-164.000         -90.000            5.425e-03           2.347e-03             303.955           3.078e-03             161.210           3.001e+00     
-163.000         -90.000            5.105e-03           2.576e-03              26.647           2.529e-03             154.586           2.048e+00     
