Theta [deg.]  Phi   [deg.]  Abs(Dir.)[      ]   Abs(Theta)[      ]  Phase(Theta)[deg.]  Abs(Phi  )[      ]  Phase(Phi  )[deg.]  Ax.Ratio[      ]    
------------------------------------------------------------------------------------------------------------------------------------------------------
-180.000         -90.000            4.192e-04           2.929e-09             177.745           4.192e-04             238.364           3.162e+02     
-179.000         -90.000            2.790e-03           2.365e-03              56.413           4.244e-04             238.354           8.220e+01     
-178.000         -90.000            8.957e-03           8.516e-03              56.595           4.411e-04             238.298           1.555e+02     
-177.000         -90.000            1.645e-02           1.598e-02              56.985           4.674e-04             238.079           3.152e+02     
-176.000         -90.000            2.229e-02           2.179e-02              57.661           4.999e-04             237.539           3.162e+02     
-175.000         -90.000            2.417e-02           2.364e-02              58.804           5.338e-04             236.508           1.699e+02     
-174.000         -90.000            2.143e-02           2.086e-02              60.785           5.635e-04             234.821           6.012e+01     
-173.000         -90.000            1.524e-02           1.465e-02              64.494           5.826e-04             232.312           2.467e+01     
-172.000         -90.000            8.180e-03           7.593e-03              72.574           5.866e-04             228.805           9.511e+00     
-171.000         -90.000            3.166e-03           2.592e-03              95.782           5.735e-04             224.095           2.973e+00     
-170.000         -90.000            2.256e-03           1.711e-03             158.376           5.452e-04             217.941           2.268e+00     
-169.000         -90.000            5.845e-03           5.337e-03             195.525           5.079e-04             210.085           1.405e+01     
-168.000         -90.000            1.252e-02           1.204e-02             207.360           4.710e-04             200.340           4.297e+01     
-167.000         -90.000            1.962e-02           1.917e-02             212.684           4.454e-04             188.756           1.649e+01     
-166.000         -90.000            2.434e-02           2.390e-02             215.958           4.405e-04             175.834           1.155e+01     
-165.000         -90.000            2.482e-02           2.435e-02             218.737           4.620e-04             162.527           8.788e+00     
-164.000         -90.000            2.089e-02           2.038e-02             222.057           5.099e-04             149.876           6.656e+00     
-163.000         -90.000            1.414e-02           1.356e-02             227.417           5.781e-04             138.559           4.845e+00     
