Theta [deg.]  Phi   [deg.]  Abs(Dir.)[      ]   Abs(Theta)[      ]  Phase(Theta)[deg.]  Abs(Phi  )[      ]  Phase(Phi  )[deg.]  Ax.Ratio[      ]    
------------------------------------------------------------------------------------------------------------------------------------------------------
-180.000         -90.000            1.183e-02           1.255e-06              18.683           1.183e-02             233.284           1.710e+02     
-179.000         -90.000            1.500e-02           2.891e-03              90.523           1.211e-02             232.250           3.833e+00     
-178.000         -90.000            2.294e-02           9.972e-03              91.377           1.297e-02             229.304           2.630e+00     
-177.000         -90.000            3.196e-02           1.753e-02              92.102           1.443e-02             224.950           2.307e+00     
-176.000         -90.000            3.811e-02           2.161e-02              93.149           1.651e-02             219.802           2.021e+00     
-175.000         -90.000            3.921e-02           2.013e-02              94.956           1.907e-02             214.379           1.713e+00     
-174.000         -90.000            3.583e-02           1.396e-02              98.520           2.187e-02             208.994           1.539e+00     
-173.000         -90.000            3.094e-02           6.441e-03             107.198           2.450e-02             203.764           1.972e+00     
-172.000         -90.000            2.809e-02           1.626e-03             139.259           2.646e-02             198.664           4.764e+00     
-171.000         -90.000            2.944e-02           2.136e-03             216.336           2.730e-02             193.589           9.870e+00     
-170.000         -90.000            3.452e-02           7.787e-03             241.092           2.674e-02             188.386           2.627e+00     
-169.000         -90.000            4.041e-02           1.569e-02             248.727           2.472e-02             182.865           1.638e+00     
-168.000         -90.000            4.327e-02           2.176e-02             252.588           2.151e-02             176.804           1.285e+00     
-167.000         -90.000            4.045e-02           2.287e-02             255.645           1.758e-02             169.932           1.164e+00     
-166.000         -90.000            3.196e-02           1.845e-02             259.516           1.352e-02             161.939           1.227e+00     
-165.000         -90.000            2.069e-02           1.084e-02             266.800           9.840e-03             152.505           1.553e+00     
-164.000         -90.000            1.104e-02           4.164e-03             286.397           6.874e-03             141.444           3.289e+00     
-163.000         -90.000            6.913e-03           2.220e-03             344.142           4.693e-03             128.961           3.425e+00     
