Theta [deg.]  Phi   [deg.]  Abs(Dir.)[      ]   Abs(Theta)[      ]  Phase(Theta)[deg.]  Abs(Phi  )[      ]  Phase(Phi  )[deg.]  Ax.Ratio[      ]    
------------------------------------------------------------------------------------------------------------------------------------------------------
-180.000         -90.000            2.484e-02           1.230e-08             322.450           2.484e-02             251.693           3.162e+02     
-179.000         -90.000            2.802e-02           3.700e-03             219.958           2.432e-02             251.040           5.541e+00     
-178.000         -90.000            3.665e-02           1.383e-02             220.053           2.282e-02             249.035           4.009e+00     
-177.000         -90.000            4.832e-02           2.774e-02             220.241           2.058e-02             245.517           4.515e+00     
-176.000         -90.000            5.970e-02           4.178e-02             220.545           1.792e-02             240.207           6.326e+00     
-175.000         -90.000            6.752e-02           5.228e-02             221.013           1.524e-02             232.724           1.170e+01     
-174.000         -90.000            6.945e-02           5.650e-02             221.727           1.296e-02             222.683           1.538e+02     
-173.000         -90.000            6.478e-02           5.334e-02             222.835           1.144e-02             209.999           1.172e+01     
-172.000         -90.000            5.464e-02           4.367e-02             224.627           1.097e-02             195.354           4.902e+00     
-171.000         -90.000            4.179e-02           3.009e-02             227.768           1.170e-02             180.301           2.645e+00     
-170.000         -90.000            2.989e-02           1.626e-02             234.034           1.364e-02             166.469           1.510e+00     
-169.000         -90.000            2.263e-02           5.977e-03             250.264           1.665e-02             154.663           1.686e+00     
-168.000         -90.000            2.273e-02           2.238e-03             304.313           2.049e-02             144.854           9.459e+00     
-167.000         -90.000            3.123e-02           6.429e-03             357.089           2.481e-02             136.643           3.529e+00     
-166.000         -90.000            4.720e-02           1.799e-02              13.085           2.922e-02             129.589           1.719e+00     
-165.000         -90.000            6.787e-02           3.454e-02              19.673           3.333e-02             123.329           1.273e+00     
-164.000         -90.000            8.926e-02           5.245e-02              23.459           3.680e-02             117.592           1.211e+00     
-163.000         -90.000            1.072e-01           6.780e-02              26.254           3.937e-02             112.180           1.325e+00     
