Theta [deg.]  Phi   [deg.]  Abs(Dir.)[      ]   Abs(Theta)[      ]  Phase(Theta)[deg.]  Abs(Phi  )[      ]  Phase(Phi  )[deg.]  Ax.Ratio[      ]    
------------------------------------------------------------------------------------------------------------------------------------------------------
-180.000         -90.000            7.134e-04           2.283e-07             141.309           7.132e-04              50.484           5.590e+01     
-179.000         -90.000            2.048e-03           1.296e-03             324.367           7.524e-04              52.899           1.314e+00     
-178.000         -90.000            5.148e-03           4.268e-03             324.776           8.796e-04              58.800           2.211e+00     
-177.000         -90.000            7.793e-03           6.680e-03             325.646           1.113e-03              64.979           2.495e+00     
-176.000         -90.000            8.158e-03           6.730e-03             327.388           1.428e-03              68.713           2.237e+00     
-175.000         -90.000            6.153e-03           4.417e-03             331.253           1.736e-03              68.688           1.626e+00     
-174.000         -90.000            3.459e-03           1.527e-03             342.900           1.932e-03              64.242           1.212e+00     
-173.000         -90.000            2.273e-03           2.887e-04              51.495           1.984e-03              54.555           5.622e+01     
-172.000         -90.000            3.702e-03           1.687e-03             114.387           2.015e-03              38.862           1.311e+00     
-171.000         -90.000            7.023e-03           4.732e-03             125.933           2.291e-03              18.367           1.620e+00     
-170.000         -90.000            1.030e-02           7.197e-03             131.213           3.106e-03             357.542           2.633e+00     
-169.000         -90.000            1.190e-02           7.295e-03             136.176           4.601e-03             340.171           4.843e+00     
-168.000         -90.000            1.166e-02           5.027e-03             144.363           6.635e-03             326.499           5.417e+01     
-167.000         -90.000            1.104e-02           2.243e-03             164.806           8.792e-03             315.196           4.822e+00     
-166.000         -90.000            1.190e-02           1.371e-03             218.926           1.053e-02             304.969           2.780e+00     
-165.000         -90.000            1.511e-02           3.697e-03             260.417           1.141e-02             294.864           3.853e+00     
-164.000         -90.000            1.969e-02           8.410e-03             274.759           1.128e-02             284.165           1.229e+01     
-163.000         -90.000            2.332e-02           1.303e-02             281.461           1.029e-02             272.315           1.259e+01     
