Theta [deg.]  Phi   [deg.]  Abs(Dir.)[      ]   Abs(Theta)[      ]  Phase(Theta)[deg.]  Abs(Phi  )[      ]  Phase(Phi  )[deg.]  Ax.Ratio[      ]    
------------------------------------------------------------------------------------------------------------------------------------------------------
-180.000         -90.000            5.180e-03           2.709e-07             208.882           5.180e-03             130.724           1.413e+02     
-179.000         -90.000            9.010e-03           3.827e-03             116.640           5.183e-03             132.207           7.403e+00     
-178.000         -90.000            1.810e-02           1.286e-02             116.640           5.244e-03             136.436           6.352e+00     
-177.000         -90.000            2.679e-02           2.133e-02             117.041           5.458e-03             142.680           5.558e+00     
-176.000         -90.000            2.979e-02           2.389e-02             117.933           5.907e-03             149.744           4.538e+00     
-175.000         -90.000            2.556e-02           1.897e-02             119.799           6.590e-03             156.344           3.558e+00     
-174.000         -90.000            1.719e-02           9.802e-03             124.316           7.385e-03             161.587           3.003e+00     
-173.000         -90.000            1.032e-02           2.248e-03             141.292           8.067e-03             165.124           5.823e+00     
-172.000         -90.000            9.408e-03           1.021e-03             241.525           8.388e-03             166.979           3.003e+00     
-171.000         -90.000            1.486e-02           6.701e-03             274.371           8.158e-03             167.323           1.375e+00     
-170.000         -90.000            2.277e-02           1.544e-02             281.490           7.328e-03             166.352           1.813e+00     
-169.000         -90.000            2.751e-02           2.151e-02             285.288           6.003e-03             164.234           2.412e+00     
-168.000         -90.000            2.543e-02           2.102e-02             289.112           4.412e-03             161.135           3.019e+00     
-167.000         -90.000            1.729e-02           1.446e-02             295.431           2.830e-03             157.272           3.788e+00     
-166.000         -90.000            7.885e-03           6.387e-03             310.843           1.498e-03             153.114           6.574e+00     
-165.000         -90.000            3.126e-03           2.556e-03               0.015           5.693e-04             150.230           5.017e+00     
-164.000         -90.000            6.366e-03           6.271e-03              53.275           9.537e-05             158.966           8.433e+00     
-163.000         -90.000            1.630e-02           1.625e-02              70.359           5.221e-05             261.924           8.827e+01     
