Theta [deg.]  Phi   [deg.]  Abs(Dir.)[      ]   Abs(Theta)[      ]  Phase(Theta)[deg.]  Abs(Phi  )[      ]  Phase(Phi  )[deg.]  Ax.Ratio[      ]    
------------------------------------------------------------------------------------------------------------------------------------------------------
-180.000         -90.000            1.314e-03           7.095e-07             353.073           1.314e-03              40.225           5.870e+01     
-179.000         -90.000            5.569e-03           4.254e-03             217.669           1.316e-03              39.474           7.472e+01     
-178.000         -90.000            1.690e-02           1.557e-02             217.548           1.322e-03              37.284           3.162e+02     
-177.000         -90.000            3.107e-02           2.973e-02             217.733           1.331e-03              33.782           7.163e+01     
-176.000         -90.000            4.281e-02           4.146e-02             218.165           1.344e-03              29.152           3.658e+01     
-175.000         -90.000            4.778e-02           4.642e-02             218.945           1.357e-03              23.599           2.270e+01     
-174.000         -90.000            4.420e-02           4.283e-02             220.318           1.364e-03              17.302           1.472e+01     
-173.000         -90.000            3.349e-02           3.213e-02             222.844           1.360e-03              10.372           9.330e+00     
-172.000         -90.000            1.977e-02           1.843e-02             228.078           1.336e-03               2.845           5.427e+00     
-171.000         -90.000            8.259e-03           6.970e-03             241.890           1.289e-03             354.656           2.604e+00     
-170.000         -90.000            3.349e-03           2.129e-03             292.857           1.220e-03             345.667           2.141e+00     
-169.000         -90.000            6.966e-03           5.830e-03             352.075           1.136e-03             335.686           9.487e+00     
-168.000         -90.000            1.786e-02           1.681e-02               8.737           1.049e-03             324.534           5.931e+00     
-167.000         -90.000            3.210e-02           3.112e-02              15.120           9.756e-04             312.146           6.383e+00     
-166.000         -90.000            4.451e-02           4.358e-02              18.721           9.291e-04             298.696           6.958e+00     
-165.000         -90.000            5.061e-02           4.969e-02              21.576           9.203e-04             284.691           7.403e+00     
-164.000         -90.000            4.828e-02           4.733e-02              24.724           9.518e-04             270.864           7.737e+00     
-163.000         -90.000            3.854e-02           3.752e-02              29.273           1.017e-03             257.897           8.191e+00     
