Theta [deg.]  Phi   [deg.]  Abs(Dir.)[      ]   Abs(Theta)[      ]  Phase(Theta)[deg.]  Abs(Phi  )[      ]  Phase(Phi  )[deg.]  Ax.Ratio[      ]    
------------------------------------------------------------------------------------------------------------------------------------------------------
-180.000         -90.000            9.653e-05           8.061e-08               0.517           9.645e-05              66.640           3.783e+01     
-179.000         -90.000            2.610e-03           2.498e-03             196.886           1.127e-04              69.027           6.067e+00     
-178.000         -90.000            8.831e-03           8.662e-03             197.054           1.691e-04              74.011           8.588e+00     
-177.000         -90.000            1.537e-02           1.509e-02             197.475           2.851e-04              78.413           8.361e+00     
-176.000         -90.000            1.871e-02           1.823e-02             198.284           4.802e-04              80.941           6.976e+00     
-175.000         -90.000            1.711e-02           1.635e-02             199.841           7.612e-04              81.621           5.316e+00     
-174.000         -90.000            1.162e-02           1.051e-02             203.167           1.112e-03              80.757           3.761e+00     
-173.000         -90.000            5.522e-03           4.028e-03             212.400           1.494e-03              78.553           2.759e+00     
-172.000         -90.000            2.517e-03           6.670e-04             261.590           1.850e-03              75.081           1.994e+01     
-171.000         -90.000            4.727e-03           2.599e-03             341.567           2.128e-03              70.286           1.108e+00     
-170.000         -90.000            1.149e-02           9.195e-03             356.008           2.293e-03              64.013           2.255e+00     
-169.000         -90.000            1.966e-02           1.731e-02               0.951           2.342e-03              56.039           3.476e+00     
-168.000         -90.000            2.524e-02           2.293e-02               3.899           2.312e-03              46.159           4.953e+00     
-167.000         -90.000            2.552e-02           2.325e-02               6.716           2.263e-03              34.345           7.451e+00     
-166.000         -90.000            2.043e-02           1.817e-02              10.747           2.260e-03              20.971           1.791e+01     
-165.000         -90.000            1.271e-02           1.036e-02              18.610           2.349e-03               6.899           1.261e+01     
-164.000         -90.000            6.438e-03           3.903e-03              39.608           2.535e-03             353.187           2.410e+00     
-163.000         -90.000            4.998e-03           2.220e-03              97.857           2.778e-03             340.599           1.663e+00     
