Theta [deg.]  Phi   [deg.]  Abs(Dir.)[      ]   Abs(Theta)[      ]  Phase(Theta)[deg.]  Abs(Phi  )[      ]  Phase(Phi  )[deg.]  Ax.Ratio[      ]    
------------------------------------------------------------------------------------------------------------------------------------------------------
-180.000         -90.000            7.820e-03           1.733e-07              31.938           7.820e-03             125.835           2.129e+02     
-179.000         -90.000            1.183e-02           4.271e-03              24.941           7.562e-03             124.868           1.399e+00     
-178.000         -90.000            2.287e-02           1.602e-02              25.050           6.850e-03             121.810           1.556e+00     
-177.000         -90.000            3.848e-02           3.264e-02              25.236           5.840e-03             116.185           2.365e+00     
-176.000         -90.000            5.522e-02           5.045e-02              25.525           4.768e-03             107.145           3.295e+00     
-175.000         -90.000            6.941e-02           6.550e-02              25.953           3.913e-03              93.672           4.461e+00     
-174.000         -90.000            7.803e-02           7.448e-02              26.578           3.556e-03              75.686           6.182e+00     
-173.000         -90.000            7.939e-02           7.546e-02              27.495           3.934e-03              55.840           9.601e+00     
-172.000         -90.000            7.349e-02           6.828e-02              28.875           5.211e-03              38.251           2.387e+01     
-171.000         -90.000            6.209e-02           5.464e-02              31.043           7.445e-03              24.717           2.790e+01     
-170.000         -90.000            4.822e-02           3.764e-02              34.688           1.058e-02              14.668           6.914e+00     
-169.000         -90.000            3.559e-02           2.115e-02              41.600           1.444e-02               6.997           3.281e+00     
-168.000         -90.000            2.772e-02           8.936e-03              57.587           1.878e-02               0.832           2.077e+00     
-167.000         -90.000            2.713e-02           3.863e-03             100.694           2.327e-02             355.598           2.576e+00     
-166.000         -90.000            3.480e-02           7.247e-03             151.038           2.755e-02             350.926           7.098e+00     
-165.000         -90.000            4.989e-02           1.860e-02             171.139           3.129e-02             346.573           2.594e+01     
-164.000         -90.000            6.993e-02           3.574e-02             179.682           3.420e-02             342.372           6.571e+00     
-163.000         -90.000            9.136e-02           5.529e-02             184.430           3.606e-02             338.200           4.402e+00     
