Theta [deg.]  Phi   [deg.]  Abs(Dir.)[      ]   Abs(Theta)[      ]  Phase(Theta)[deg.]  Abs(Phi  )[      ]  Phase(Phi  )[deg.]  Ax.Ratio[      ]    
------------------------------------------------------------------------------------------------------------------------------------------------------
-180.000         -90.000            1.134e-03           1.998e-08             109.061           1.134e-03             200.370           2.383e+02     
-179.000         -90.000            6.160e-03           5.006e-03             323.408           1.154e-03             200.480           2.680e+00     
-178.000         -90.000            1.864e-02           1.743e-02             323.571           1.211e-03             200.703           4.613e+00     
-177.000         -90.000            3.205e-02           3.076e-02             323.952           1.297e-03             200.870           5.886e+00     
-176.000         -90.000            3.942e-02           3.802e-02             324.672           1.398e-03             200.765           6.357e+00     
-175.000         -90.000            3.694e-02           3.545e-02             326.030           1.492e-03             200.177           6.102e+00     
-174.000         -90.000            2.600e-02           2.445e-02             328.817           1.555e-03             198.912           5.309e+00     
-173.000         -90.000            1.248e-02           1.092e-02             335.834           1.562e-03             196.771           4.383e+00     
-172.000         -90.000            3.647e-03           2.150e-03               5.742           1.498e-03             193.525           1.494e+01     
-171.000         -90.000            4.446e-03           3.086e-03              97.514           1.360e-03             188.851           1.507e+00     
-170.000         -90.000            1.488e-02           1.371e-02             119.772           1.168e-03             182.272           3.939e+00     
-169.000         -90.000            3.000e-02           2.905e-02             126.139           9.538e-04             173.094           7.669e+00     
-168.000         -90.000            4.242e-02           4.165e-02             129.513           7.622e-04             160.481           1.456e+01     
-167.000         -90.000            4.604e-02           4.540e-02             132.401           6.331e-04             143.997           4.269e+01     
-166.000         -90.000            3.918e-02           3.859e-02             136.153           5.924e-04             124.799           4.160e+01     
-165.000         -90.000            2.544e-02           2.480e-02             142.826           6.429e-04             105.881           1.051e+01     
-164.000         -90.000            1.191e-02           1.115e-02             158.498           7.630e-04              89.742           4.140e+00     
-163.000         -90.000            5.729e-03           4.817e-03             202.784           9.125e-04              76.812           3.049e+00     
