Theta [deg.]  Phi   [deg.]  Abs(Dir.)[      ]   Abs(Theta)[      ]  Phase(Theta)[deg.]  Abs(Phi  )[      ]  Phase(Phi  )[deg.]  Ax.Ratio[      ]    
------------------------------------------------------------------------------------------------------------------------------------------------------
-180.000         -90.000            1.942e-02           4.982e-07             339.199           1.942e-02             167.469           3.162e+02     
-179.000         -90.000            2.577e-02           7.209e-03             205.331           1.856e-02             166.562           3.250e+00     
-178.000         -90.000            4.038e-02           2.406e-02             205.149           1.632e-02             163.916           2.725e+00     
-177.000         -90.000            5.228e-02           3.901e-02             205.109           1.327e-02             159.172           2.847e+00     
-176.000         -90.000            5.194e-02           4.180e-02             205.207           1.014e-02             151.736           2.780e+00     
-175.000         -90.000            3.800e-02           3.044e-02             205.641           7.556e-03             140.956           2.345e+00     
-174.000         -90.000            1.859e-02           1.270e-02             207.271           5.890e-03             126.848           1.523e+00     
-173.000         -90.000            6.096e-03           9.352e-04             221.095           5.161e-03             111.197           2.560e+00     
-172.000         -90.000            9.011e-03           3.895e-03              12.324           5.116e-03              97.116           1.178e+00     
-171.000         -90.000            2.614e-02           2.076e-02              17.330           5.375e-03              86.682           2.187e+00     
-170.000         -90.000            4.715e-02           4.156e-02              18.339           5.587e-03              80.158           3.198e+00     
-169.000         -90.000            5.906e-02           5.351e-02              18.741           5.548e-03              77.033           3.763e+00     
-168.000         -90.000            5.444e-02           4.921e-02              19.221           5.231e-03              76.779           3.754e+00     
-167.000         -90.000            3.609e-02           3.135e-02              20.453           4.735e-03              78.984           3.156e+00     
-166.000         -90.000            1.520e-02           1.100e-02              24.741           4.206e-03              83.186           2.160e+00     
-165.000         -90.000            4.348e-03           5.918e-04              68.719           3.756e-03              88.633           8.444e+00     
-164.000         -90.000            9.721e-03           6.306e-03             178.925           3.415e-03              94.236           1.378e+00     
-163.000         -90.000            2.754e-02           2.440e-02             186.386           3.141e-03              98.836           2.790e+00     
