Theta [deg.]  Phi   [deg.]  Abs(Dir.)[      ]   Abs(Theta)[      ]  Phase(Theta)[deg.]  Abs(Phi  )[      ]  Phase(Phi  )[deg.]  Ax.Ratio[      ]    
------------------------------------------------------------------------------------------------------------------------------------------------------
-180.000         -90.000            6.371e-03           1.202e-07             187.593           6.371e-03             167.336           3.162e+02     
-179.000         -90.000            1.068e-02           4.143e-03              21.185           6.538e-03             167.780           3.437e+00     
-178.000         -90.000            2.123e-02           1.420e-02              21.417           7.027e-03             168.955           3.688e+00     
-177.000         -90.000            3.205e-02           2.425e-02              21.958           7.800e-03             170.538           4.234e+00     
-176.000         -90.000            3.713e-02           2.835e-02              22.997           8.773e-03             172.171           4.365e+00     
-175.000         -90.000            3.389e-02           2.409e-02              25.045           9.794e-03             173.575           3.974e+00     
-174.000         -90.000            2.469e-02           1.404e-02              29.673           1.065e-02             174.594           3.201e+00     
-173.000         -90.000            1.548e-02           4.365e-03              44.409           1.112e-02             175.170           2.541e+00     
-172.000         -90.000            1.226e-02           1.285e-03             121.533           1.098e-02             175.312           3.783e+00     
-171.000         -90.000            1.761e-02           7.482e-03             170.779           1.013e-02             175.076           2.697e+01     
-170.000         -90.000            2.907e-02           2.045e-02             180.776           8.619e-03             174.559           2.017e+01     
-169.000         -90.000            4.041e-02           3.378e-02             184.842           6.629e-03             173.929           1.419e+01     
-168.000         -90.000            4.509e-02           4.062e-02             187.539           4.466e-03             173.514           1.374e+01     
-167.000         -90.000            3.992e-02           3.743e-02             190.375           2.485e-03             174.136           1.473e+01     
-166.000         -90.000            2.695e-02           2.595e-02             194.857           1.000e-03             178.554           1.879e+01     
-165.000         -90.000            1.248e-02           1.226e-02             204.815           2.207e-04             202.230           1.683e+02     
-164.000         -90.000            3.820e-03           3.610e-03             237.625           2.098e-04             280.865           6.247e+00     
-163.000         -90.000            5.412e-03           4.519e-03             306.748           8.925e-04             303.815           5.265e+01     
