Theta [deg.]  Phi   [deg.]  Abs(Dir.)[      ]   Abs(Theta)[      ]  Phase(Theta)[deg.]  Abs(Phi  )[      ]  Phase(Phi  )[deg.]  Ax.Ratio[      ]    
------------------------------------------------------------------------------------------------------------------------------------------------------
-180.000         -90.000            5.303e-03           5.887e-07             295.410           5.303e-03             272.967           2.486e+02     
-179.000         -90.000            7.457e-03           2.197e-03              26.276           5.259e-03             273.981           1.822e+00     
-178.000         -90.000            1.237e-02           7.218e-03              26.992           5.150e-03             276.867           1.489e+00     
-177.000         -90.000            1.649e-02           1.146e-02              27.634           5.030e-03             281.156           1.664e+00     
-176.000         -90.000            1.682e-02           1.188e-02              28.643           4.940e-03             286.056           1.640e+00     
-175.000         -90.000            1.304e-02           8.180e-03              30.672           4.863e-03             290.587           1.371e+00     
-174.000         -90.000            7.758e-03           3.032e-03              36.347           4.725e-03             293.832           1.369e+00     
-173.000         -90.000            4.631e-03           2.057e-04              84.136           4.425e-03             295.083           9.332e+00     
-172.000         -90.000            5.773e-03           1.875e-03             187.743           3.899e-03             293.781           1.595e+00     
-171.000         -90.000            1.024e-02           7.063e-03             196.989           3.172e-03             289.268           1.495e+00     
-170.000         -90.000            1.468e-02           1.231e-02             200.801           2.370e-03             280.476           2.334e+00     
-169.000         -90.000            1.577e-02           1.409e-02             204.287           1.679e-03             265.722           3.397e+00     
-168.000         -90.000            1.258e-02           1.131e-02             209.523           1.267e-03             243.721           5.738e+00     
-167.000         -90.000            7.253e-03           6.045e-03             220.596           1.208e-03             217.354           4.744e+01     
-166.000         -90.000            3.603e-03           2.154e-03             253.311           1.449e-03             193.423           1.803e+00     
-165.000         -90.000            4.414e-03           2.588e-03             316.191           1.827e-03             174.632           2.924e+00     
-164.000         -90.000            9.494e-03           7.360e-03             343.842           2.135e-03             159.430           3.111e+01     
-163.000         -90.000            1.574e-02           1.353e-02             354.543           2.208e-03             145.671           5.791e+00     
