Theta [deg.]  Phi   [deg.]  Abs(Dir.)[      ]   Abs(Theta)[      ]  Phase(Theta)[deg.]  Abs(Phi  )[      ]  Phase(Phi  )[deg.]  Ax.Ratio[      ]    
------------------------------------------------------------------------------------------------------------------------------------------------------
-180.000         -90.000            4.312e-02           5.102e-07              53.560           4.312e-02             212.342           3.162e+02     
-179.000         -90.000            4.562e-02           3.584e-03             256.910           4.203e-02             211.714           5.040e+00     
-178.000         -90.000            5.224e-02           1.325e-02             256.728           3.899e-02             209.887           2.793e+00     
-177.000         -90.000            6.012e-02           2.565e-02             256.606           3.447e-02             206.705           2.186e+00     
-176.000         -90.000            6.570e-02           3.653e-02             256.485           2.917e-02             201.896           1.959e+00     
-175.000         -90.000            6.598e-02           4.211e-02             256.365           2.387e-02             195.079           1.825e+00     
-174.000         -90.000            5.976e-02           4.048e-02             256.267           1.928e-02             185.839           1.672e+00     
-173.000         -90.000            4.811e-02           3.217e-02             256.240           1.594e-02             174.002           1.459e+00     
-172.000         -90.000            3.416e-02           2.005e-02             256.406           1.412e-02             160.107           1.231e+00     
-171.000         -90.000            2.209e-02           8.304e-03             257.201           1.379e-02             145.628           1.592e+00     
-170.000         -90.000            1.572e-02           1.049e-03             262.340           1.467e-02             132.280           5.037e+00     
-169.000         -90.000            1.724e-02           9.462e-04              64.866           1.629e-02             121.023           5.090e+00     
-168.000         -90.000            2.642e-02           8.313e-03              70.501           1.811e-02             111.910           2.913e+00     
-167.000         -90.000            4.061e-02           2.101e-02              71.451           1.960e-02             104.545           3.368e+00     
-166.000         -90.000            5.551e-02           3.515e-02              71.848           2.035e-02              98.457           4.406e+00     
-165.000         -90.000            6.649e-02           4.636e-02              72.215           2.014e-02              93.238           5.897e+00     
-164.000         -90.000            7.007e-02           5.115e-02              72.797           1.892e-02              88.564           8.167e+00     
-163.000         -90.000            6.494e-02           4.811e-02              73.865           1.683e-02              84.171           1.268e+01     
