Theta [deg.]  Phi   [deg.]  Abs(Dir.)[      ]   Abs(Theta)[      ]  Phase(Theta)[deg.]  Abs(Phi  )[      ]  Phase(Phi  )[deg.]  Ax.Ratio[      ]    
------------------------------------------------------------------------------------------------------------------------------------------------------
-180.000         -90.000            1.524e-02           2.570e-06             177.114           1.524e-02             225.998           1.022e+02     
-179.000         -90.000            2.203e-02           7.252e-03             149.573           1.478e-02             224.598           1.563e+00     
-178.000         -90.000            3.696e-02           2.316e-02             149.477           1.381e-02             220.610           1.532e+00     
-177.000         -90.000            4.848e-02           3.582e-02             149.734           1.266e-02             214.010           2.036e+00     
-176.000         -90.000            4.754e-02           3.582e-02             150.415           1.173e-02             205.034           2.435e+00     
-175.000         -90.000            3.455e-02           2.324e-02             152.070           1.130e-02             194.455           2.805e+00     
-174.000         -90.000            1.903e-02           7.539e-03             157.382           1.149e-02             183.543           4.411e+00     
-173.000         -90.000            1.245e-02           3.137e-04             227.837           1.214e-02             173.543           7.729e+00     
-172.000         -90.000            1.959e-02           6.667e-03             314.115           1.292e-02             165.151           3.832e+00     
-171.000         -90.000            3.498e-02           2.154e-02             320.506           1.344e-02             158.491           6.505e+00     
-170.000         -90.000            4.709e-02           3.373e-02             323.485           1.337e-02             153.381           1.283e+01     
-169.000         -90.000            4.692e-02           3.434e-02             326.670           1.257e-02             149.556           4.481e+01     
-168.000         -90.000            3.451e-02           2.339e-02             332.354           1.112e-02             146.774           2.196e+01     
-167.000         -90.000            1.870e-02           9.466e-03             347.298           9.238e-03             144.819           5.033e+00     
-166.000         -90.000            1.045e-02           3.222e-03              42.039           7.226e-03             143.447           1.573e+00     
-165.000         -90.000            1.469e-02           9.339e-03              97.406           5.352e-03             142.330           2.551e+00     
-164.000         -90.000            2.697e-02           2.318e-02             112.949           3.789e-03             140.893           5.973e+00     
-163.000         -90.000            3.696e-02           3.435e-02             119.618           2.603e-03             138.167           1.220e+01     
