Theta [deg.]  Phi   [deg.]  Abs(Dir.)[      ]   Abs(Theta)[      ]  Phase(Theta)[deg.]  Abs(Phi  )[      ]  Phase(Phi  )[deg.]  Ax.Ratio[      ]    
------------------------------------------------------------------------------------------------------------------------------------------------------
-180.000         -90.000            2.227e-02           1.553e-09             271.725           2.227e-02              20.580           3.162e+02     
-179.000         -90.000            2.872e-02           6.710e-03             178.718           2.201e-02              20.158           6.307e+00     
-178.000         -90.000            4.572e-02           2.447e-02             178.859           2.125e-02              18.876           5.681e+00     
-177.000         -90.000            6.706e-02           4.701e-02             179.147           2.005e-02              16.747           7.083e+00     
-176.000         -90.000            8.491e-02           6.640e-02             179.643           1.850e-02              13.795           9.805e+00     
-175.000         -90.000            9.259e-02           7.586e-02             180.465           1.673e-02              10.059           1.553e+01     
-174.000         -90.000            8.700e-02           7.218e-02             181.851           1.482e-02               5.594           4.072e+01     
-173.000         -90.000            6.970e-02           5.683e-02             184.303           1.287e-02               0.475           3.857e+01     
-172.000         -90.000            4.639e-02           3.545e-02             189.096           1.095e-02             354.793           9.427e+00     
-171.000         -90.000            2.491e-02           1.581e-02             200.404           9.094e-03             348.645           3.674e+00     
-170.000         -90.000            1.243e-02           5.087e-03             236.160           7.345e-03             342.131           1.402e+00     
-169.000         -90.000            1.302e-02           7.302e-03             299.097           5.721e-03             335.332           3.085e+00     
-168.000         -90.000            2.619e-02           2.195e-02             323.345           4.247e-03             328.302           3.137e+01     
-167.000         -90.000            4.712e-02           4.417e-02             332.012           2.947e-03             321.045           2.166e+01     
-166.000         -90.000            6.831e-02           6.646e-02             336.398           1.855e-03             313.482           1.574e+01     
-165.000         -90.000            8.228e-02           8.128e-02             339.400           1.000e-03             305.338           1.623e+01     
-164.000         -90.000            8.409e-02           8.368e-02             342.207           4.050e-04             295.667           1.985e+01     
-163.000         -90.000            7.310e-02           7.302e-02             345.730           7.939e-05             278.839           3.298e+01     
