Theta [deg.]  Phi   [deg.]  Abs(Dir.)[      ]   Abs(Theta)[      ]  Phase(Theta)[deg.]  Abs(Phi  )[      ]  Phase(Phi  )[deg.]  Ax.Ratio[      ]    
------------------------------------------------------------------------------------------------------------------------------------------------------
-180.000         -90.000            1.500e-02           2.104e-08             168.215           1.500e-02              53.007           3.162e+02     
-179.000         -90.000            1.892e-02           4.006e-03             121.632           1.492e-02              52.131           2.148e+00     
-178.000         -90.000            2.915e-02           1.444e-02             121.614           1.471e-02              49.528           1.374e+00     
-177.000         -90.000            4.169e-02           2.722e-02             121.664           1.447e-02              45.285           1.490e+00     
-176.000         -90.000            5.169e-02           3.736e-02             121.785           1.433e-02              39.595           1.648e+00     
-175.000         -90.000            5.531e-02           4.091e-02             122.023           1.440e-02              32.776           1.686e+00     
-174.000         -90.000            5.126e-02           3.650e-02             122.476           1.477e-02              25.265           1.601e+00     
-173.000         -90.000            4.127e-02           2.584e-02             123.378           1.543e-02              17.521           1.467e+00     
-172.000         -90.000            2.941e-02           1.311e-02             125.447           1.630e-02               9.926           1.607e+00     
-171.000         -90.000            2.052e-02           3.288e-03             132.480           1.724e-02               2.704           3.239e+00     
-170.000         -90.000            1.828e-02           2.534e-04             239.643           1.803e-02             355.924           9.434e+00     
-169.000         -90.000            2.380e-02           5.317e-03             288.277           1.848e-02             349.533           2.304e+00     
-168.000         -90.000            3.515e-02           1.673e-02             293.440           1.842e-02             343.401           2.150e+00     
-167.000         -90.000            4.812e-02           3.035e-02             295.707           1.777e-02             337.357           2.755e+00     
-166.000         -90.000            5.779e-02           4.127e-02             297.482           1.652e-02             331.197           3.719e+00     
-165.000         -90.000            6.036e-02           4.560e-02             299.513           1.476e-02             324.690           5.279e+00     
-164.000         -90.000            5.464e-02           4.196e-02             302.420           1.268e-02             317.566           8.954e+00     
-163.000         -90.000            4.244e-02           3.195e-02             307.220           1.049e-02             309.497           5.834e+01     
