Theta [deg.]  Phi   [deg.]  Abs(Dir.)[      ]   Abs(Theta)[      ]  Phase(Theta)[deg.]  Abs(Phi  )[      ]  Phase(Phi  )[deg.]  Ax.Ratio[      ]    
------------------------------------------------------------------------------------------------------------------------------------------------------
-180.000         -90.000            1.976e-02           1.187e-08             295.224           1.976e-02             140.369           3.162e+02     
-179.000         -90.000            2.432e-02           4.796e-03             135.817           1.953e-02             139.931           3.500e+01     
-178.000         -90.000            3.595e-02           1.713e-02             135.991           1.882e-02             138.633           4.341e+01     
-177.000         -90.000            4.932e-02           3.164e-02             136.349           1.768e-02             136.469           3.162e+02     
-176.000         -90.000            5.821e-02           4.204e-02             136.973           1.616e-02             133.420           3.600e+01     
-175.000         -90.000            5.818e-02           4.383e-02             138.043           1.435e-02             129.447           1.546e+01     
-174.000         -90.000            4.858e-02           3.626e-02             139.959           1.232e-02             124.469           8.488e+00     
-173.000         -90.000            3.289e-02           2.271e-02             143.778           1.019e-02             118.326           4.825e+00     
-172.000         -90.000            1.728e-02           9.213e-03             153.466           8.065e-03             110.733           2.564e+00     
-171.000         -90.000            8.028e-03           1.942e-03             194.628           6.086e-03             101.159           1.777e+00     
-170.000         -90.000            8.904e-03           4.519e-03             273.117           4.385e-03              88.676           2.579e+01     
-169.000         -90.000            1.958e-02           1.648e-02             292.209           3.097e-03              71.826           3.978e+00     
-168.000         -90.000            3.580e-02           3.346e-02             298.754           2.345e-03              49.230           4.069e+00     
-167.000         -90.000            5.116e-02           4.894e-02             302.512           2.221e-03              22.367           4.776e+00     
-166.000         -90.000            5.983e-02           5.706e-02             305.717           2.769e-03             356.967           5.934e+00     
-165.000         -90.000            5.890e-02           5.492e-02             309.470           3.973e-03             336.924           8.531e+00     
-164.000         -90.000            4.954e-02           4.379e-02             315.008           5.743e-03             321.768           2.650e+01     
-163.000         -90.000            3.650e-02           2.858e-02             324.693           7.919e-03             309.850           9.365e+00     
