Theta [deg.]  Phi   [deg.]  Abs(Dir.)[      ]   Abs(Theta)[      ]  Phase(Theta)[deg.]  Abs(Phi  )[      ]  Phase(Phi  )[deg.]  Ax.Ratio[      ]    
------------------------------------------------------------------------------------------------------------------------------------------------------
-180.000         -90.000            1.185e-03           3.081e-08             142.349           1.185e-03              87.616           2.402e+02     
-179.000         -90.000            4.816e-03           3.586e-03             357.218           1.230e-03              88.342           1.708e+00     
-178.000         -90.000            1.514e-02           1.377e-02             357.326           1.366e-03              90.339           3.181e+00     
-177.000         -90.000            3.045e-02           2.884e-02             357.548           1.610e-03              93.161           4.256e+00     
-176.000         -90.000            4.827e-02           4.628e-02             357.890           1.987e-03              96.279           4.883e+00     
-175.000         -90.000            6.570e-02           6.317e-02             358.377           2.525e-03              99.258           5.101e+00     
-174.000         -90.000            7.999e-02           7.674e-02             359.051           3.252e-03             101.829           4.992e+00     
-173.000         -90.000            8.896e-02           8.477e-02             359.975           4.186e-03             103.877           4.650e+00     
-172.000         -90.000            9.138e-02           8.604e-02               1.247           5.337e-03             105.386           4.157e+00     
-171.000         -90.000            8.715e-02           8.046e-02               3.025           6.693e-03             106.390           3.581e+00     
-170.000         -90.000            7.735e-02           6.912e-02               5.576           8.227e-03             106.941           2.972e+00     
-169.000         -90.000            6.397e-02           5.408e-02               9.383           9.887e-03             107.088           2.370e+00     
-168.000         -90.000            4.963e-02           3.802e-02              15.391           1.161e-02             106.874           1.811e+00     
-167.000         -90.000            3.708e-02           2.378e-02              25.589           1.330e-02             106.332           1.396e+00     
-166.000         -90.000            2.876e-02           1.388e-02              44.040           1.488e-02             105.482           1.685e+00     
-165.000         -90.000            2.638e-02           1.013e-02              74.422           1.625e-02             104.335           3.864e+00     
-164.000         -90.000            3.066e-02           1.333e-02             105.900           1.733e-02             102.890           3.840e+01     
-163.000         -90.000            4.120e-02           2.314e-02             125.841           1.806e-02             101.138           4.605e+00     
