Theta [deg.]  Phi   [deg.]  Abs(Dir.)[      ]   Abs(Theta)[      ]  Phase(Theta)[deg.]  Abs(Phi  )[      ]  Phase(Phi  )[deg.]  Ax.Ratio[      ]    
------------------------------------------------------------------------------------------------------------------------------------------------------
-180.000         -90.000            7.508e-02           2.716e-06             149.616           7.507e-02             228.496           1.694e+02     
-179.000         -90.000            7.747e-02           4.027e-03             187.534           7.344e-02             228.135           6.774e+00     
-178.000         -90.000            8.397e-02           1.483e-02             187.974           6.914e-02             227.023           3.907e+00     
-177.000         -90.000            9.248e-02           2.984e-02             188.101           6.264e-02             225.077           3.249e+00     
-176.000         -90.000            1.001e-01           4.547e-02             188.146           5.463e-02             222.146           3.287e+00     
-175.000         -90.000            1.040e-01           5.803e-02             188.166           4.596e-02             218.000           3.783e+00     
-174.000         -90.000            1.020e-01           6.455e-02             188.195           3.747e-02             212.312           4.871e+00     
-173.000         -90.000            9.348e-02           6.351e-02             188.268           2.997e-02             204.680           7.449e+00     
-172.000         -90.000            7.928e-02           5.522e-02             188.440           2.406e-02             194.733           1.979e+01     
-171.000         -90.000            6.179e-02           4.166e-02             188.818           2.012e-02             182.440           1.916e+01     
-170.000         -90.000            4.432e-02           2.604e-02             189.647           1.828e-02             168.538           5.458e+00     
-169.000         -90.000            3.035e-02           1.199e-02             191.683           1.836e-02             154.540           3.061e+00     
-168.000         -90.000            2.272e-02           2.723e-03             199.132           2.000e-02             141.943           3.366e+00     
-167.000         -90.000            2.293e-02           2.739e-04             312.696           2.265e-02             131.447           3.162e+02     
-166.000         -90.000            3.077e-02           5.058e-03             353.886           2.571e-02             122.987           3.160e+00     
-165.000         -90.000            4.437e-02           1.581e-02             358.439           2.857e-02             116.165           1.805e+00     
-164.000         -90.000            6.062e-02           2.991e-02               0.119           3.071e-02             110.550           1.440e+00     
-163.000         -90.000            7.582e-02           4.404e-02               1.088           3.178e-02             105.776           1.360e+00     
