Theta [deg.]  Phi   [deg.]  Abs(Dir.)[      ]   Abs(Theta)[      ]  Phase(Theta)[deg.]  Abs(Phi  )[      ]  Phase(Phi  )[deg.]  Ax.Ratio[      ]    
------------------------------------------------------------------------------------------------------------------------------------------------------
-180.000         -90.000            9.916e-04           2.374e-07             251.816           9.914e-04             160.534           6.464e+01     
-179.000         -90.000            2.155e-03           1.108e-03              11.827           1.047e-03             161.491           3.690e+00     
-178.000         -90.000            4.857e-03           3.645e-03              12.348           1.212e-03             163.785           4.617e+00     
-177.000         -90.000            7.222e-03           5.743e-03              12.817           1.479e-03             165.882           5.281e+00     
-176.000         -90.000            7.660e-03           5.850e-03              13.649           1.809e-03             166.395           4.938e+00     
-175.000         -90.000            6.006e-03           3.877e-03              15.586           2.129e-03             164.441           3.777e+00     
-174.000         -90.000            3.651e-03           1.294e-03              21.975           2.357e-03             159.420           2.724e+00     
-173.000         -90.000            2.549e-03           8.342e-05              94.286           2.465e-03             150.753           6.591e+00     
-172.000         -90.000            3.834e-03           1.307e-03             172.867           2.527e-03             138.011           3.397e+00     
-171.000         -90.000            7.014e-03           4.306e-03             179.889           2.708e-03             121.636           1.885e+00     
-170.000         -90.000            1.031e-02           7.111e-03             182.651           3.196e-03             103.648           1.562e+00     
-169.000         -90.000            1.190e-02           7.804e-03             185.146           4.095e-03              86.646           1.428e+00     
-168.000         -90.000            1.124e-02           5.893e-03             189.351           5.343e-03              71.902           1.651e+00     
-167.000         -90.000            9.449e-03           2.742e-03             200.052           6.707e-03              59.200           3.175e+00     
-166.000         -90.000            8.606e-03           7.473e-04             242.795           7.859e-03              47.751           1.361e+01     
-165.000         -90.000            1.027e-02           1.757e-03             312.734           8.511e-03              36.758           2.219e+00     
-164.000         -90.000            1.430e-02           5.784e-03             331.865           8.519e-03              25.577           2.037e+00     
-163.000         -90.000            1.878e-02           1.086e-02             338.914           7.920e-03              13.685           3.242e+00     
