Theta [deg.]  Phi   [deg.]  Abs(Dir.)[      ]   Abs(Theta)[      ]  Phase(Theta)[deg.]  Abs(Phi  )[      ]  Phase(Phi  )[deg.]  Ax.Ratio[      ]    
------------------------------------------------------------------------------------------------------------------------------------------------------
-180.000         -90.000            2.520e-03           1.592e-06               7.860           2.519e-03             328.194           6.234e+01     
-179.000         -90.000            9.177e-03           6.640e-03              63.449           2.537e-03             327.710           1.636e+00     
-178.000         -90.000            2.566e-02           2.307e-02              64.066           2.590e-03             326.298           3.019e+00     
-177.000         -90.000            4.391e-02           4.124e-02              64.658           2.670e-03             324.040           4.008e+00     
-176.000         -90.000            5.501e-02           5.224e-02              65.542           2.764e-03             321.041           4.506e+00     
-175.000         -90.000            5.364e-02           5.079e-02              67.051           2.854e-03             317.405           4.509e+00     
-174.000         -90.000            4.066e-02           3.774e-02              69.914           2.918e-03             313.208           4.092e+00     
-173.000         -90.000            2.265e-02           1.971e-02              76.350           2.936e-03             308.490           3.484e+00     
-172.000         -90.000            8.690e-03           5.801e-03              96.950           2.889e-03             303.250           4.572e+00     
-171.000         -90.000            5.885e-03           3.118e-03             172.064           2.767e-03             297.445           1.943e+00     
-170.000         -90.000            1.590e-02           1.333e-02             210.695           2.574e-03             291.002           2.324e+00     
-169.000         -90.000            3.419e-02           3.187e-02             220.772           2.320e-03             283.820           4.223e+00     
-168.000         -90.000            5.214e-02           5.011e-02             225.239           2.030e-03             275.781           6.543e+00     
-167.000         -90.000            6.132e-02           5.959e-02             228.238           1.730e-03             266.779           9.588e+00     
-166.000         -90.000            5.741e-02           5.596e-02             231.285           1.446e-03             256.760           1.477e+01     
-165.000         -90.000            4.229e-02           4.110e-02             235.788           1.194e-03             245.789           3.473e+01     
-164.000         -90.000            2.313e-02           2.214e-02             244.807           9.833e-04             234.108           2.666e+01     
-163.000         -90.000            8.998e-03           8.189e-03             269.362           8.090e-04             222.162           4.545e+00     
