Theta [deg.]  Phi   [deg.]  Abs(Dir.)[      ]   Abs(Theta)[      ]  Phase(Theta)[deg.]  Abs(Phi  )[      ]  Phase(Phi  )[deg.]  Ax.Ratio[      ]    
------------------------------------------------------------------------------------------------------------------------------------------------------
-180.000         -90.000            8.346e-05           2.955e-07             348.929           8.317e-05             264.831           1.687e+01     
-179.000         -90.000            6.006e-03           5.915e-03             292.603           9.112e-05             264.504           1.731e+01     
-178.000         -90.000            2.125e-02           2.113e-02             292.599           1.148e-04             263.673           2.817e+01     
-177.000         -90.000            3.956e-02           3.940e-02             292.874           1.582e-04             262.218           3.105e+01     
-176.000         -90.000            5.346e-02           5.323e-02             293.428           2.270e-04             260.040           2.791e+01     
-175.000         -90.000            5.732e-02           5.700e-02             294.415           3.276e-04             257.113           2.185e+01     
-174.000         -90.000            4.972e-02           4.925e-02             296.194           4.661e-04             253.498           1.524e+01     
-173.000         -90.000            3.398e-02           3.333e-02             299.655           6.478e-04             249.229           9.381e+00     
-172.000         -90.000            1.684e-02           1.596e-02             307.660           8.763e-04             244.439           4.836e+00     
-171.000         -90.000            5.638e-03           4.485e-03             334.175           1.153e-03             239.247           1.985e+00     
-170.000         -90.000            5.361e-03           3.887e-03              48.311           1.474e-03             233.775           2.348e+01     
-169.000         -90.000            1.658e-02           1.475e-02              79.391           1.829e-03             228.132           5.984e+00     
-168.000         -90.000            3.524e-02           3.304e-02              88.688           2.201e-03             222.394           5.536e+00     
-167.000         -90.000            5.432e-02           5.175e-02              93.138           2.562e-03             216.623           5.473e+00     
-166.000         -90.000            6.661e-02           6.373e-02              96.232           2.878e-03             210.837           5.218e+00     
-165.000         -90.000            6.761e-02           6.451e-02              99.298           3.108e-03             205.012           4.750e+00     
-164.000         -90.000            5.728e-02           5.406e-02             103.409           3.219e-03             199.085           4.121e+00     
-163.000         -90.000            4.000e-02           3.682e-02             110.316           3.186e-03             192.949           3.433e+00     
