Theta [deg.]  Phi   [deg.]  Abs(Dir.)[      ]   Abs(Theta)[      ]  Phase(Theta)[deg.]  Abs(Phi  )[      ]  Phase(Phi  )[deg.]  Ax.Ratio[      ]    
------------------------------------------------------------------------------------------------------------------------------------------------------
-180.000         -90.000            3.384e-03           1.644e-06             243.554           3.383e-03             292.314           6.033e+01     
-179.000         -90.000            8.592e-03           5.384e-03             281.507           3.208e-03             290.759           1.278e+01     
-178.000         -90.000            2.146e-02           1.867e-02             281.854           2.787e-03             286.183           3.938e+01     
-177.000         -90.000            3.574e-02           3.348e-02             282.044           2.259e-03             277.761           5.501e+01     
-176.000         -90.000            4.453e-02           4.272e-02             282.271           1.806e-03             264.399           1.646e+01     
-175.000         -90.000            4.358e-02           4.199e-02             282.650           1.593e-03             246.122           8.840e+00     
-174.000         -90.000            3.342e-02           3.170e-02             283.389           1.715e-03             226.231           5.202e+00     
-173.000         -90.000            1.898e-02           1.681e-02             285.089           2.172e-03             209.292           2.895e+00     
-172.000         -90.000            7.247e-03           4.388e-03             290.851           2.859e-03             196.801           1.253e+00     
-171.000         -90.000            3.821e-03           2.191e-04              36.068           3.601e-03             187.825           8.977e+00     
-170.000         -90.000            1.027e-02           6.070e-03              89.941           4.197e-03             181.100           1.204e+00     
-169.000         -90.000            2.342e-02           1.894e-02              94.668           4.476e-03             175.683           2.098e+00     
-168.000         -90.000            3.695e-02           3.260e-02              96.808           4.347e-03             170.939           2.880e+00     
-167.000         -90.000            4.442e-02           4.061e-02              98.686           3.817e-03             166.372           3.578e+00     
-166.000         -90.000            4.237e-02           3.938e-02             101.181           2.992e-03             161.497           4.258e+00     
-165.000         -90.000            3.185e-02           2.981e-02             105.405           2.043e-03             155.635           5.115e+00     
-164.000         -90.000            1.789e-02           1.673e-02             114.073           1.161e-03             147.407           7.251e+00     
-163.000         -90.000            7.087e-03           6.580e-03             136.748           5.072e-04             132.925           5.817e+01     
