Theta [deg.]  Phi   [deg.]  Abs(Dir.)[      ]   Abs(Theta)[      ]  Phase(Theta)[deg.]  Abs(Phi  )[      ]  Phase(Phi  )[deg.]  Ax.Ratio[      ]    
------------------------------------------------------------------------------------------------------------------------------------------------------
-180.000         -90.000            1.555e-03           1.567e-08              33.094           1.555e-03             207.413           3.162e+02     
-179.000         -90.000            5.213e-03           3.666e-03              12.591           1.546e-03             206.603           8.930e+00     
-178.000         -90.000            1.515e-02           1.363e-02              12.808           1.521e-03             204.193           1.680e+01     
-177.000         -90.000            2.864e-02           2.715e-02              13.231           1.487e-03             200.234           3.694e+01     
-176.000         -90.000            4.201e-02           4.055e-02              13.903           1.453e-03             194.832           3.162e+02     
-175.000         -90.000            5.165e-02           5.022e-02              14.915           1.429e-03             188.176           5.194e+01     
-174.000         -90.000            5.504e-02           5.362e-02              16.428           1.422e-03             180.532           2.297e+01     
-173.000         -90.000            5.145e-02           5.001e-02              18.730           1.433e-03             172.211           1.354e+01     
-172.000         -90.000            4.208e-02           4.062e-02              22.367           1.461e-03             163.509           8.590e+00     
-171.000         -90.000            2.974e-02           2.824e-02              28.526           1.496e-03             154.635           5.480e+00     
-170.000         -90.000            1.802e-02           1.649e-02              40.011           1.529e-03             145.675           3.436e+00     
-169.000         -90.000            1.030e-02           8.757e-03              63.354           1.547e-03             136.598           2.528e+00     
-168.000         -90.000            8.807e-03           7.263e-03             101.929           1.543e-03             127.269           5.978e+00     
-167.000         -90.000            1.399e-02           1.248e-02             133.094           1.515e-03             117.488           1.188e+01     
-166.000         -90.000            2.448e-02           2.301e-02             149.119           1.468e-03             107.017           6.120e+00     
-165.000         -90.000            3.744e-02           3.603e-02             157.757           1.413e-03              95.634           5.764e+00     
-164.000         -90.000            4.942e-02           4.805e-02             163.298           1.369e-03              83.210           6.019e+00     
-163.000         -90.000            5.728e-02           5.592e-02             167.579           1.359e-03              69.816           6.478e+00     
