Theta [deg.]  Phi   [deg.]  Abs(Dir.)[      ]   Abs(Theta)[      ]  Phase(Theta)[deg.]  Abs(Phi  )[      ]  Phase(Phi  )[deg.]  Ax.Ratio[      ]    
------------------------------------------------------------------------------------------------------------------------------------------------------
-180.000         -90.000            9.812e-04           3.539e-07              94.829           9.808e-04             113.827           1.618e+02     
-179.000         -90.000            3.898e-03           2.909e-03             131.824           9.890e-04             113.848           7.310e+00     
-178.000         -90.000            1.119e-02           1.018e-02             132.226           1.012e-03             113.939           1.102e+01     
-177.000         -90.000            1.946e-02           1.841e-02             132.699           1.049e-03             113.986           1.373e+01     
-176.000         -90.000            2.487e-02           2.377e-02             133.447           1.098e-03             113.825           1.442e+01     
-175.000         -90.000            2.496e-02           2.380e-02             134.723           1.157e-03             113.271           1.293e+01     
-174.000         -90.000            1.976e-02           1.854e-02             137.077           1.221e-03             112.152           9.754e+00     
-173.000         -90.000            1.180e-02           1.052e-02             142.079           1.283e-03             110.311           5.932e+00     
-172.000         -90.000            4.901e-03           3.562e-03             156.397           1.339e-03             107.638           2.600e+00     
-171.000         -90.000            2.377e-03           9.937e-04             219.550           1.383e-03             104.050           1.634e+00     
-170.000         -90.000            5.502e-03           4.090e-03             276.080           1.411e-03              99.494           3.842e+01     
-169.000         -90.000            1.293e-02           1.151e-02             289.234           1.422e-03              93.957           1.205e+01     
-168.000         -90.000            2.134e-02           1.992e-02             294.573           1.416e-03              87.401           8.682e+00     
-167.000         -90.000            2.697e-02           2.558e-02             298.021           1.397e-03              79.866           7.164e+00     
-166.000         -90.000            2.737e-02           2.600e-02             301.355           1.371e-03              71.411           5.818e+00     
-165.000         -90.000            2.247e-02           2.113e-02             305.886           1.342e-03              62.143           4.482e+00     
-164.000         -90.000            1.463e-02           1.331e-02             313.883           1.316e-03              52.214           3.222e+00     
-163.000         -90.000            7.542e-03           6.247e-03             331.736           1.295e-03              41.823           2.404e+00     
