Theta [deg.]  Phi   [deg.]  Abs(Dir.)[      ]   Abs(Theta)[      ]  Phase(Theta)[deg.]  Abs(Phi  )[      ]  Phase(Phi  )[deg.]  Ax.Ratio[      ]    
------------------------------------------------------------------------------------------------------------------------------------------------------
-180.000         -90.000            1.661e-03           2.904e-07              86.042           1.661e-03              12.153           7.872e+01     
-179.000         -90.000            3.511e-03           1.798e-03             128.190           1.713e-03              11.707           1.616e+00     
-178.000         -90.000            7.797e-03           5.931e-03             128.536           1.866e-03              10.437           2.203e+00     
-177.000         -90.000            1.174e-02           9.638e-03             128.830           2.101e-03               8.243           2.654e+00     
-176.000         -90.000            1.282e-02           1.044e-02             129.299           2.383e-03               4.976           2.749e+00     
-175.000         -90.000            1.046e-02           7.788e-03             130.251           2.667e-03               0.452           2.601e+00     
-174.000         -90.000            6.363e-03           3.458e-03             132.746           2.905e-03             354.460           2.638e+00     
-173.000         -90.000            3.445e-03           3.797e-04             146.999           3.066e-03             346.776           9.331e+00     
-172.000         -90.000            3.861e-03           7.074e-04             291.602           3.153e-03             337.217           3.315e+00     
-171.000         -90.000            7.589e-03           4.384e-03             301.283           3.206e-03             325.741           4.676e+00     
-170.000         -90.000            1.244e-02           9.155e-03             304.231           3.282e-03             312.585           1.555e+01     
-169.000         -90.000            1.547e-02           1.203e-02             306.727           3.434e-03             298.319           1.639e+01     
-168.000         -90.000            1.493e-02           1.125e-02             310.305           3.680e-03             283.698           4.979e+00     
-167.000         -90.000            1.140e-02           7.411e-03             317.187           3.992e-03             269.347           2.414e+00     
-166.000         -90.000            7.455e-03           3.156e-03             334.688           4.299e-03             255.566           1.279e+00     
-165.000         -90.000            5.951e-03           1.438e-03              26.974           4.513e-03             242.336           3.771e+00     
-164.000         -90.000            8.188e-03           3.634e-03              75.885           4.554e-03             229.462           4.290e+00     
-163.000         -90.000            1.301e-02           8.638e-03              92.580           4.372e-03             216.642           2.073e+00     
