Theta [deg.]  Phi   [deg.]  Abs(Dir.)[      ]   Abs(Theta)[      ]  Phase(Theta)[deg.]  Abs(Phi  )[      ]  Phase(Phi  )[deg.]  Ax.Ratio[      ]    
------------------------------------------------------------------------------------------------------------------------------------------------------
-180.000         -90.000            2.015e-05           3.805e-08             187.209           2.011e-05              25.454           7.355e+01     
-179.000         -90.000            5.586e-03           5.574e-03             201.985           1.179e-05              31.481           1.321e+02     
-178.000         -90.000            1.919e-02           1.919e-02             202.207           2.241e-06             102.320           9.393e+01     
-177.000         -90.000            3.344e-02           3.341e-02             202.613           3.079e-05             168.481           5.874e+01     
-176.000         -90.000            4.065e-02           4.050e-02             203.341           1.452e-04             175.321           3.565e+01     
-175.000         -90.000            3.708e-02           3.669e-02             204.674           3.814e-04             175.961           2.058e+01     
-174.000         -90.000            2.494e-02           2.419e-02             207.375           7.447e-04             174.629           1.077e+01     
-173.000         -90.000            1.108e-02           9.881e-03             214.301           1.201e-03             172.182           4.579e+00     
-172.000         -90.000            3.161e-03           1.483e-03             248.483           1.678e-03             168.848           1.212e+00     
-171.000         -90.000            5.406e-03           3.323e-03             346.338           2.083e-03             164.637           6.922e+01     
-170.000         -90.000            1.635e-02           1.402e-02               3.953           2.330e-03             159.422           6.743e+00     
-169.000         -90.000            2.976e-02           2.740e-02               9.585           2.363e-03             152.928           6.029e+00     
-168.000         -90.000            3.813e-02           3.595e-02              13.227           2.185e-03             144.667           5.560e+00     
-167.000         -90.000            3.692e-02           3.507e-02              17.151           1.857e-03             133.821           4.917e+00     
-166.000         -90.000            2.704e-02           2.555e-02              23.306           1.491e-03             119.184           4.164e+00     
-165.000         -90.000            1.437e-02           1.315e-02              36.337           1.218e-03              99.616           3.753e+00     
-164.000         -90.000            6.544e-03           5.398e-03              71.833           1.146e-03              75.977           3.639e+01     
-163.000         -90.000            8.821e-03           7.495e-03             127.137           1.326e-03              52.550           2.503e+00     
