Theta [deg.]  Phi   [deg.]  Abs(Dir.)[      ]   Abs(Theta)[      ]  Phase(Theta)[deg.]  Abs(Phi  )[      ]  Phase(Phi  )[deg.]  Ax.Ratio[      ]    
------------------------------------------------------------------------------------------------------------------------------------------------------
-180.000         -90.000            5.203e-02           1.765e-07             177.985           5.203e-02             326.864           3.162e+02     
-179.000         -90.000            5.411e-02           2.774e-03             149.374           5.134e-02             326.396           8.726e+01     
-178.000         -90.000            5.973e-02           1.042e-02             149.465           4.931e-02             324.963           3.354e+01     
-177.000         -90.000            6.750e-02           2.133e-02             149.728           4.617e-02             322.507           1.705e+01     
-176.000         -90.000            7.544e-02           3.318e-02             150.158           4.226e-02             318.938           1.026e+01     
-175.000         -90.000            8.149e-02           4.351e-02             150.792           3.798e-02             314.133           6.847e+00     
-174.000         -90.000            8.393e-02           5.016e-02             151.702           3.377e-02             307.968           4.861e+00     
-173.000         -90.000            8.186e-02           5.183e-02             153.005           3.004e-02             300.354           3.565e+00     
-172.000         -90.000            7.539e-02           4.824e-02             154.900           2.714e-02             291.325           2.644e+00     
-171.000         -90.000            6.562e-02           4.030e-02             157.755           2.532e-02             281.126           1.946e+00     
-170.000         -90.000            5.449e-02           2.981e-02             162.270           2.468e-02             270.245           1.395e+00     
-169.000         -90.000            4.432e-02           1.911e-02             169.998           2.521e-02             259.308           1.149e+00     
-168.000         -90.000            3.732e-02           1.055e-02             184.633           2.677e-02             248.881           1.954e+00     
-167.000         -90.000            3.516e-02           6.045e-03             213.258           2.912e-02             239.312           5.864e+00     
-166.000         -90.000            3.857e-02           6.625e-03             251.436           3.194e-02             230.704           7.353e+00     
-165.000         -90.000            4.715e-02           1.225e-02             276.792           3.490e-02             222.993           2.411e+00     
-164.000         -90.000            5.950e-02           2.184e-02             289.888           3.766e-02             216.038           1.488e+00     
-163.000         -90.000            7.342e-02           3.350e-02             297.369           3.992e-02             209.684           1.101e+00     
