Theta [deg.]  Phi   [deg.]  Abs(Dir.)[      ]   Abs(Theta)[      ]  Phase(Theta)[deg.]  Abs(Phi  )[      ]  Phase(Phi  )[deg.]  Ax.Ratio[      ]    
------------------------------------------------------------------------------------------------------------------------------------------------------
-180.000         -90.000            9.971e-03           3.047e-07              67.358           9.970e-03             177.590           1.928e+02     
-179.000         -90.000            1.559e-02           5.690e-03             173.393           9.905e-03             176.244           4.175e+01     
-178.000         -90.000            2.834e-02           1.866e-02             173.701           9.680e-03             172.323           8.770e+01     
-177.000         -90.000            3.893e-02           2.948e-02             174.007           9.451e-03             166.035           1.676e+01     
-176.000         -90.000            3.971e-02           3.031e-02             174.562           9.409e-03             157.870           8.064e+00     
-175.000         -90.000            3.024e-02           2.055e-02             175.820           9.690e-03             148.670           4.473e+00     
-174.000         -90.000            1.764e-02           7.330e-03             179.718           1.031e-02             139.423           2.778e+00     
-173.000         -90.000            1.144e-02           2.896e-04             224.841           1.116e-02             130.905           6.222e+00     
-172.000         -90.000            1.665e-02           4.681e-03             339.090           1.197e-02             123.485           3.538e+00     
-171.000         -90.000            3.008e-02           1.762e-02             345.179           1.246e-02             117.173           2.296e+00     
-170.000         -90.000            4.259e-02           3.020e-02             347.451           1.239e-02             111.796           2.215e+00     
-169.000         -90.000            4.544e-02           3.380e-02             349.457           1.164e-02             107.115           2.113e+00     
-168.000         -90.000            3.641e-02           2.614e-02             352.642           1.027e-02             102.890           1.819e+00     
-167.000         -90.000            2.120e-02           1.274e-02               0.083           8.464e-03              98.885           1.293e+00     
-166.000         -90.000            9.436e-03           2.934e-03              28.864           6.502e-03              94.858           1.814e+00     
-165.000         -90.000            8.014e-03           3.357e-03             114.523           4.657e-03              90.532           4.776e+00     
-164.000         -90.000            1.660e-02           1.347e-02             140.209           3.128e-03              85.555           2.774e+00     
-163.000         -90.000            2.813e-02           2.613e-02             148.169           2.001e-03              79.477           3.921e+00     
