Theta [deg.]  Phi   [deg.]  Abs(Dir.)[      ]   Abs(Theta)[      ]  Phase(Theta)[deg.]  Abs(Phi  )[      ]  Phase(Phi  )[deg.]  Ax.Ratio[      ]    
------------------------------------------------------------------------------------------------------------------------------------------------------
-180.000         -90.000            7.946e-02           3.241e-08              91.800           7.946e-02             284.471           3.162e+02     
-179.000         -90.000            8.091e-02           2.465e-03              50.536           7.845e-02             284.045           7.097e+00     
-178.000         -90.000            8.471e-02           9.198e-03              50.605           7.551e-02             282.757           3.808e+00     
-177.000         -90.000            8.942e-02           1.846e-02              50.832           7.095e-02             280.571           2.892e+00     
-176.000         -90.000            9.310e-02           2.787e-02              51.218           6.523e-02             277.428           2.647e+00     
-175.000         -90.000            9.390e-02           3.500e-02              51.810           5.890e-02             273.258           2.762e+00     
-174.000         -90.000            9.054e-02           3.802e-02              52.707           5.252e-02             267.992           3.195e+00     
-173.000         -90.000            8.278e-02           3.618e-02              54.084           4.661e-02             261.593           4.122e+00     
-172.000         -90.000            7.154e-02           2.998e-02              56.281           4.156e-02             254.095           6.470e+00     
-171.000         -90.000            5.872e-02           2.110e-02              60.044           3.761e-02             245.649           2.129e+01     
-170.000         -90.000            4.679e-02           1.194e-02              67.334           3.485e-02             236.536           1.216e+01     
-169.000         -90.000            3.820e-02           5.017e-03              84.672           3.318e-02             227.137           4.644e+00     
-168.000         -90.000            3.476e-02           2.377e-03             130.854           3.238e-02             217.841           3.697e+00     
-167.000         -90.000            3.718e-02           5.033e-03             178.487           3.215e-02             208.946           5.587e+00     
-166.000         -90.000            4.487e-02           1.272e-02             196.756           3.215e-02             200.616           3.293e+01     
-165.000         -90.000            5.599e-02           2.394e-02             204.632           3.205e-02             192.882           9.824e+00     
-164.000         -90.000            6.792e-02           3.631e-02             209.034           3.161e-02             185.688           4.853e+00     
-163.000         -90.000            7.778e-02           4.714e-02             212.082           3.065e-02             178.926           3.452e+00     
