Theta [deg.]  Phi   [deg.]  Abs(Dir.)[      ]   Abs(Theta)[      ]  Phase(Theta)[deg.]  Abs(Phi  )[      ]  Phase(Phi  )[deg.]  Ax.Ratio[      ]    
------------------------------------------------------------------------------------------------------------------------------------------------------
-180.000         -90.000            1.490e-02           1.515e-06              48.741           1.490e-02              91.262           1.467e+02     
-179.000         -90.000            1.906e-02           4.454e-03             319.168           1.461e-02              90.396           2.783e+00     
-178.000         -90.000            2.997e-02           1.611e-02             318.834           1.386e-02              87.989           2.113e+00     
-177.000         -90.000            4.330e-02           3.052e-02             319.020           1.278e-02              83.943           2.224e+00     
-176.000         -90.000            5.375e-02           4.220e-02             319.542           1.155e-02              78.126           2.346e+00     
-175.000         -90.000            5.712e-02           4.674e-02             320.491           1.038e-02              70.432           2.330e+00     
-174.000         -90.000            5.196e-02           4.252e-02             322.144           9.443e-03              60.905           2.161e+00     
-173.000         -90.000            4.019e-02           3.129e-02             325.157           8.893e-03              49.885           1.890e+00     
-172.000         -90.000            2.628e-02           1.748e-02             331.378           8.802e-03              38.067           1.729e+00     
-171.000         -90.000            1.562e-02           6.457e-03             347.914           9.158e-03              26.311           2.928e+00     
-170.000         -90.000            1.236e-02           2.493e-03              42.900           9.871e-03              15.328           5.192e+00     
-169.000         -90.000            1.789e-02           7.108e-03              94.017           1.078e-02               5.465           1.233e+00     
-168.000         -90.000            3.020e-02           1.853e-02             109.313           1.168e-02             356.746           1.598e+00     
-167.000         -90.000            4.473e-02           3.237e-02             115.509           1.236e-02             349.015           2.357e+00     
-166.000         -90.000            5.598e-02           4.333e-02             118.995           1.265e-02             342.048           3.189e+00     
-165.000         -90.000            5.964e-02           4.723e-02             121.626           1.241e-02             335.617           4.166e+00     
-164.000         -90.000            5.414e-02           4.253e-02             124.356           1.161e-02             329.499           5.554e+00     
-163.000         -90.000            4.129e-02           3.100e-02             128.224           1.029e-02             323.469           8.676e+00     
