Theta [deg.]  Phi   [deg.]  Abs(Dir.)[      ]   Abs(Theta)[      ]  Phase(Theta)[deg.]  Abs(Phi  )[      ]  Phase(Phi  )[deg.]  Ax.Ratio[      ]    
------------------------------------------------------------------------------------------------------------------------------------------------------
-180.000         -90.000            5.232e-02           1.881e-06             234.356           5.232e-02             296.348           1.889e+02     
-179.000         -90.000            5.449e-02           3.259e-03             353.173           5.123e-02             295.841           4.801e+00     
-178.000         -90.000            6.061e-02           1.221e-02             353.803           4.840e-02             294.356           2.494e+00     
-177.000         -90.000            6.836e-02           2.418e-02             354.061           4.418e-02             291.806           1.811e+00     
-176.000         -90.000            7.467e-02           3.561e-02             354.262           3.906e-02             288.055           1.538e+00     
-175.000         -90.000            7.675e-02           4.310e-02             354.498           3.365e-02             282.916           1.420e+00     
-174.000         -90.000            7.293e-02           4.441e-02             354.847           2.852e-02             276.181           1.348e+00     
-173.000         -90.000            6.332e-02           3.915e-02             355.424           2.417e-02             267.707           1.277e+00     
-172.000         -90.000            4.982e-02           2.888e-02             356.470           2.094e-02             257.552           1.252e+00     
-171.000         -90.000            3.565e-02           1.668e-02             358.613           1.897e-02             246.143           1.504e+00     
-170.000         -90.000            2.443e-02           6.219e-03               4.275           1.821e-02             234.285           2.614e+00     
-169.000         -90.000            1.918e-02           7.351e-04              36.179           1.844e-02             222.878           4.463e+01     
-168.000         -90.000            2.140e-02           2.079e-03             144.435           1.932e-02             212.555           3.339e+00     
-167.000         -90.000            3.064e-02           1.019e-02             158.786           2.045e-02             203.532           2.636e+00     
-166.000         -90.000            4.456e-02           2.311e-02             162.767           2.144e-02             195.715           3.384e+00     
-165.000         -90.000            5.951e-02           3.754e-02             164.735           2.197e-02             188.870           4.862e+00     
-164.000         -90.000            7.156e-02           4.972e-02             166.124           2.183e-02             182.735           7.463e+00     
-163.000         -90.000            7.746e-02           5.652e-02             167.466           2.094e-02             177.060           1.344e+01     
