Theta [deg.]  Phi   [deg.]  Abs(Dir.)[      ]   Abs(Theta)[      ]  Phase(Theta)[deg.]  Abs(Phi  )[      ]  Phase(Phi  )[deg.]  Ax.Ratio[      ]    
------------------------------------------------------------------------------------------------------------------------------------------------------
-180.000         -90.000            1.067e-02           1.361e-06             298.296           1.067e-02             133.893           3.162e+02     
-179.000         -90.000            1.357e-02           2.611e-03              26.893           1.096e-02             132.904           2.181e+00     
-178.000         -90.000            2.088e-02           9.032e-03              27.858           1.185e-02             130.086           1.290e+00     
-177.000         -90.000            2.917e-02           1.581e-02              28.651           1.336e-02             125.929           1.165e+00     
-176.000         -90.000            3.482e-02           1.932e-02              29.772           1.550e-02             121.010           1.119e+00     
-175.000         -90.000            3.590e-02           1.774e-02              31.680           1.816e-02             115.798           1.109e+00     
-174.000         -90.000            3.308e-02           1.201e-02              35.428           2.108e-02             110.569           1.473e+00     
-173.000         -90.000            2.916e-02           5.285e-03              44.682           2.388e-02             105.420           2.590e+00     
-172.000         -90.000            2.732e-02           1.246e-03              80.616           2.607e-02             100.322           1.414e+01     
-171.000         -90.000            2.925e-02           2.061e-03             158.108           2.719e-02              95.176           4.147e+00     
-170.000         -90.000            3.416e-02           7.258e-03             180.280           2.690e-02              89.840           1.925e+00     
-169.000         -90.000            3.914e-02           1.401e-02             187.568           2.514e-02              84.131           1.460e+00     
-168.000         -90.000            4.077e-02           1.866e-02             191.675           2.210e-02              77.830           1.549e+00     
-167.000         -90.000            3.703e-02           1.877e-02             195.415           1.826e-02              70.666           1.911e+00     
-166.000         -90.000            2.854e-02           1.435e-02             200.694           1.420e-02              62.321           2.631e+00     
-165.000         -90.000            1.839e-02           7.933e-03             211.225           1.046e-02              52.469           5.387e+00     
-164.000         -90.000            1.062e-02           3.211e-03             239.298           7.409e-03              40.933           6.763e+00     
-163.000         -90.000            8.246e-03           3.101e-03             295.092           5.145e-03              27.947           1.294e+00     
