Theta [deg.]  Phi   [deg.]  Abs(Dir.)[      ]   Abs(Theta)[      ]  Phase(Theta)[deg.]  Abs(Phi  )[      ]  Phase(Phi  )[deg.]  Ax.Ratio[      ]    
------------------------------------------------------------------------------------------------------------------------------------------------------
-180.000         -90.000            8.277e-03           3.260e-08              37.321           8.277e-03             227.217           3.162e+02     
-179.000         -90.000            1.234e-02           4.036e-03             355.123           8.308e-03             226.087           2.312e+00     
-178.000         -90.000            2.280e-02           1.437e-02             355.152           8.428e-03             222.799           2.384e+00     
-177.000         -90.000            3.525e-02           2.655e-02             355.303           8.700e-03             217.660           3.122e+00     
-176.000         -90.000            4.451e-02           3.531e-02             355.600           9.195e-03             211.173           3.995e+00     
-175.000         -90.000            4.681e-02           3.685e-02             356.141           9.960e-03             203.954           5.038e+00     
-174.000         -90.000            4.147e-02           3.049e-02             357.152           1.098e-02             196.575           6.666e+00     
-173.000         -90.000            3.114e-02           1.897e-02             359.245           1.217e-02             189.429           1.150e+01     
-172.000         -90.000            2.069e-02           7.337e-03               4.813           1.336e-02             182.686           5.630e+01     
-171.000         -90.000            1.518e-02           8.268e-04              37.467           1.436e-02             176.341           6.547e+00     
-170.000         -90.000            1.762e-02           2.656e-03             147.185           1.496e-02             170.277           6.982e+00     
-169.000         -90.000            2.769e-02           1.265e-02             160.745           1.503e-02             164.316           3.220e+01     
-168.000         -90.000            4.178e-02           2.727e-02             164.743           1.450e-02             158.252           1.853e+01     
-167.000         -90.000            5.442e-02           4.102e-02             167.002           1.340e-02             151.848           8.764e+00     
-166.000         -90.000            6.051e-02           4.865e-02             168.980           1.187e-02             144.838           5.991e+00     
-165.000         -90.000            5.738e-02           4.729e-02             171.396           1.009e-02             136.913           4.413e+00     
-164.000         -90.000            4.590e-02           3.762e-02             175.099           8.281e-03             127.715           3.224e+00     
-163.000         -90.000            3.024e-02           2.359e-02             181.899           6.646e-03             116.870           2.212e+00     
