Theta [deg.]  Phi   [deg.]  Abs(Dir.)[      ]   Abs(Theta)[      ]  Phase(Theta)[deg.]  Abs(Phi  )[      ]  Phase(Phi  )[deg.]  Ax.Ratio[      ]    
------------------------------------------------------------------------------------------------------------------------------------------------------
-180.000         -90.000            1.751e-02           4.071e-06             181.520           1.750e-02             208.363           1.453e+02     
-179.000         -90.000            2.539e-02           8.263e-03             238.319           1.713e-02             206.257           3.754e+00     
-178.000         -90.000            4.222e-02           2.567e-02             238.979           1.655e-02             200.637           2.965e+00     
-177.000         -90.000            5.372e-02           3.740e-02             239.468           1.632e-02             192.025           2.562e+00     
-176.000         -90.000            5.039e-02           3.345e-02             240.287           1.694e-02             181.656           1.972e+00     
-175.000         -90.000            3.577e-02           1.718e-02             242.366           1.859e-02             171.227           1.402e+00     
-174.000         -90.000            2.352e-02           2.539e-03             252.988           2.099e-02             162.064           2.876e+00     
-173.000         -90.000            2.572e-02           2.304e-03              38.501           2.341e-02             154.656           3.625e+00     
-172.000         -90.000            4.238e-02           1.735e-02              50.186           2.503e-02             148.863           1.270e+00     
-171.000         -90.000            6.103e-02           3.585e-02              52.812           2.518e-02             144.298           1.196e+00     
-170.000         -90.000            6.671e-02           4.310e-02              54.677           2.361e-02             140.528           1.363e+00     
-169.000         -90.000            5.407e-02           3.349e-02              57.498           2.058e-02             137.129           1.357e+00     
-168.000         -90.000            3.166e-02           1.499e-02              64.531           1.666e-02             133.657           1.457e+00     
-167.000         -90.000            1.501e-02           2.412e-03              99.473           1.259e-02             129.573           5.238e+00     
-166.000         -90.000            1.437e-02           5.387e-03             194.656           8.983e-03             124.184           1.544e+00     
-165.000         -90.000            2.707e-02           2.086e-02             212.387           6.205e-03             116.606           1.851e+00     
-164.000         -90.000            4.036e-02           3.599e-02             218.410           4.370e-03             106.038           3.164e+00     
-163.000         -90.000            4.216e-02           3.877e-02             223.245           3.392e-03              92.602           4.630e+00     
