Theta [deg.]  Phi   [deg.]  Abs(Dir.)[      ]   Abs(Theta)[      ]  Phase(Theta)[deg.]  Abs(Phi  )[      ]  Phase(Phi  )[deg.]  Ax.Ratio[      ]    
------------------------------------------------------------------------------------------------------------------------------------------------------
-180.000         -90.000            1.069e-02           9.733e-06             257.862           1.068e-02             253.952           3.162e+02     
-179.000         -90.000            1.629e-02           4.966e-03             132.468           1.132e-02             250.069           1.934e+00     
-178.000         -90.000            2.858e-02           1.502e-02             131.995           1.356e-02             242.011           1.434e+00     
-177.000         -90.000            3.736e-02           1.947e-02             132.886           1.789e-02             232.646           1.193e+00     
-176.000         -90.000            3.798e-02           1.363e-02             135.767           2.435e-02             224.054           1.339e+00     
-175.000         -90.000            3.595e-02           3.831e-03             146.984           3.212e-02             216.822           3.133e+00     
-174.000         -90.000            4.039e-02           8.593e-04             251.967           3.953e-02             210.709           1.041e+01     
-173.000         -90.000            5.304e-02           8.443e-03             290.937           4.460e-02             205.298           2.308e+00     
-172.000         -90.000            6.487e-02           1.901e-02             297.012           4.586e-02             200.203           1.580e+00     
-171.000         -90.000            6.424e-02           2.137e-02             299.935           4.287e-02             195.089           1.551e+00     
-170.000         -90.000            4.906e-02           1.265e-02             303.541           3.641e-02             189.604           2.002e+00     
-169.000         -90.000            3.021e-02           2.084e-03             318.444           2.813e-02             183.275           5.412e+00     
-168.000         -90.000            2.228e-02           2.389e-03              93.409           1.990e-02             175.361           2.922e+00     
-167.000         -90.000            3.010e-02           1.688e-02             107.696           1.322e-02             164.725           1.866e+00     
-166.000         -90.000            4.405e-02           3.519e-02             110.998           8.868e-03             150.143           3.679e+00     
-165.000         -90.000            4.905e-02           4.220e-02             113.206           6.857e-03             132.081           8.801e+00     
-164.000         -90.000            3.861e-02           3.191e-02             116.442           6.697e-03             114.554           8.013e+01     
-163.000         -90.000            2.089e-02           1.318e-02             124.718           7.705e-03             101.581           5.078e+00     
