Theta [deg.]  Phi   [deg.]  Abs(Dir.)[      ]   Abs(Theta)[      ]  Phase(Theta)[deg.]  Abs(Phi  )[      ]  Phase(Phi  )[deg.]  Ax.Ratio[      ]    
------------------------------------------------------------------------------------------------------------------------------------------------------
-180.000         -90.000            8.980e-04           5.535e-07              18.794           8.974e-04              17.674           3.162e+02     
-179.000         -90.000            3.990e-03           3.081e-03              74.904           9.090e-04              17.855           2.430e+00     
-178.000         -90.000            1.168e-02           1.074e-02              75.456           9.416e-04              18.383           4.135e+00     
-177.000         -90.000            2.027e-02           1.927e-02              76.011           9.945e-04              19.072           5.336e+00     
-176.000         -90.000            2.562e-02           2.455e-02              76.849           1.065e-03              19.664           5.788e+00     
-175.000         -90.000            2.521e-02           2.406e-02              78.267           1.149e-03              19.888           5.448e+00     
-174.000         -90.000            1.934e-02           1.810e-02              80.919           1.238e-03              19.502           4.426e+00     
-173.000         -90.000            1.097e-02           9.642e-03              86.766           1.323e-03              18.304           2.963e+00     
-172.000         -90.000            4.279e-03           2.885e-03             105.023           1.394e-03              16.144           1.439e+00     
-171.000         -90.000            2.659e-03           1.216e-03             179.874           1.443e-03              12.904           8.789e+00     
-170.000         -90.000            7.053e-03           5.590e-03             223.113           1.463e-03               8.486           4.096e+00     
-169.000         -90.000            1.553e-02           1.408e-02             233.744           1.455e-03               2.807           4.180e+00     
-168.000         -90.000            2.422e-02           2.279e-02             238.462           1.427e-03             355.810           4.562e+00     
-167.000         -90.000            2.914e-02           2.775e-02             241.731           1.388e-03             347.497           4.663e+00     
-166.000         -90.000            2.809e-02           2.674e-02             245.124           1.353e-03             337.971           4.451e+00     
-165.000         -90.000            2.168e-02           2.034e-02             250.070           1.333e-03             327.466           4.016e+00     
-164.000         -90.000            1.302e-02           1.168e-02             259.440           1.337e-03             316.360           3.658e+00     
-163.000         -90.000            6.284e-03           4.920e-03             282.409           1.364e-03             305.092           6.127e+00     
