Theta [deg.]  Phi   [deg.]  Abs(Dir.)[      ]   Abs(Theta)[      ]  Phase(Theta)[deg.]  Abs(Phi  )[      ]  Phase(Phi  )[deg.]  Ax.Ratio[      ]    
------------------------------------------------------------------------------------------------------------------------------------------------------
-180.000         -90.000            2.066e-02           1.154e-08             264.171           2.066e-02              69.618           3.162e+02     
-179.000         -90.000            2.403e-02           3.797e-03             218.728           2.023e-02              68.999           5.248e+00     
-178.000         -90.000            3.288e-02           1.389e-02             218.900           1.899e-02              67.086           4.039e+00     
-177.000         -90.000            4.399e-02           2.688e-02             219.276           1.711e-02              63.770           4.736e+00     
-176.000         -90.000            5.322e-02           3.840e-02             219.899           1.482e-02              58.848           6.722e+00     
-175.000         -90.000            5.701e-02           4.461e-02             220.886           1.240e-02              52.016           1.248e+01     
-174.000         -90.000            5.360e-02           4.347e-02             222.458           1.013e-02              42.870           3.162e+02     
-173.000         -90.000            4.373e-02           3.546e-02             225.080           8.273e-03              30.990           1.039e+01     
-172.000         -90.000            3.043e-02           2.342e-02             229.861           7.010e-03              16.220           4.039e+00     
-171.000         -90.000            1.802e-02           1.156e-02             240.140           6.463e-03             359.168           1.842e+00     
-170.000         -90.000            1.081e-02           4.130e-03             268.828           6.675e-03             341.384           1.483e+00     
-169.000         -90.000            1.154e-02           3.924e-03             328.919           7.620e-03             324.613           2.808e+01     
-168.000         -90.000            2.060e-02           1.138e-02               0.076           9.217e-03             309.804           2.150e+00     
-167.000         -90.000            3.577e-02           2.443e-02              11.453           1.134e-02             297.016           1.609e+00     
-166.000         -90.000            5.300e-02           3.915e-02              17.219           1.385e-02             285.893           1.682e+00     
-165.000         -90.000            6.763e-02           5.107e-02              21.108           1.656e-02             276.027           1.875e+00     
-164.000         -90.000            7.591e-02           5.660e-02              24.562           1.931e-02             267.089           2.115e+00     
-163.000         -90.000            7.610e-02           5.419e-02              28.428           2.191e-02             258.842           2.459e+00     
