Theta [deg.]  Phi   [deg.]  Abs(Dir.)[      ]   Abs(Theta)[      ]  Phase(Theta)[deg.]  Abs(Phi  )[      ]  Phase(Phi  )[deg.]  Ax.Ratio[      ]    
------------------------------------------------------------------------------------------------------------------------------------------------------
-180.000         -90.000            8.793e-04           2.377e-08             352.924           8.793e-04             104.862           2.073e+02     
-179.000         -90.000            4.815e-03           3.942e-03               8.959           8.722e-04             103.965           2.139e+00     
-178.000         -90.000            1.557e-02           1.471e-02               9.105           8.541e-04             101.255           4.154e+00     
-177.000         -90.000            3.036e-02           2.953e-02               9.342           8.321e-04              96.754           5.964e+00     
-176.000         -90.000            4.541e-02           4.459e-02               9.715           8.170e-04              90.572           7.486e+00     
-175.000         -90.000            5.686e-02           5.604e-02              10.284           8.205e-04              82.992           8.667e+00     
-174.000         -90.000            6.188e-02           6.102e-02              11.149           8.530e-04              74.514           9.489e+00     
-173.000         -90.000            5.929e-02           5.837e-02              12.485           9.218e-04              65.777           9.983e+00     
-172.000         -90.000            4.993e-02           4.891e-02              14.615           1.029e-03              57.384           1.027e+01     
-171.000         -90.000            3.637e-02           3.520e-02              18.232           1.170e-03              49.727           1.076e+01     
-170.000         -90.000            2.221e-02           2.088e-02              25.015           1.336e-03              42.975           1.357e+01     
-169.000         -90.000            1.118e-02           9.666e-03              39.942           1.513e-03              37.117           5.929e+01     
-168.000         -90.000            6.105e-03           4.422e-03              76.805           1.684e-03              32.053           2.824e+00     
-167.000         -90.000            8.254e-03           6.421e-03             124.805           1.833e-03              27.659           1.898e+00     
-166.000         -90.000            1.700e-02           1.506e-02             147.488           1.944e-03              23.817           3.490e+00     
-165.000         -90.000            3.004e-02           2.804e-02             157.250           2.006e-03              20.429           5.678e+00     
-164.000         -90.000            4.402e-02           4.201e-02             162.524           2.014e-03              17.428           8.243e+00     
-163.000         -90.000            5.539e-02           5.342e-02             166.056           1.967e-03              14.769           1.116e+01     
