Theta [deg.]  Phi   [deg.]  Abs(Dir.)[      ]   Abs(Theta)[      ]  Phase(Theta)[deg.]  Abs(Phi  )[      ]  Phase(Phi  )[deg.]  Ax.Ratio[      ]    
------------------------------------------------------------------------------------------------------------------------------------------------------
-180.000         -90.000            3.352e-02           1.738e-08             152.737           3.352e-02              50.031           3.162e+02     
-179.000         -90.000            3.643e-02           3.070e-03              50.911           3.336e-02              49.919           2.080e+02     
-178.000         -90.000            4.468e-02           1.178e-02              50.863           3.290e-02              49.582           1.015e+02     
-177.000         -90.000            5.682e-02           2.469e-02              50.860           3.213e-02              49.016           6.268e+01     
-176.000         -90.000            7.076e-02           3.966e-02              50.885           3.110e-02              48.221           4.332e+01     
-175.000         -90.000            8.404e-02           5.423e-02              50.945           2.982e-02              47.190           3.189e+01     
-174.000         -90.000            9.433e-02           6.600e-02              51.058           2.833e-02              45.919           2.431e+01     
-173.000         -90.000            9.972e-02           7.305e-02              51.256           2.667e-02              44.399           1.887e+01     
-172.000         -90.000            9.915e-02           7.426e-02              51.585           2.489e-02              42.622           1.474e+01     
-171.000         -90.000            9.248e-02           6.946e-02              52.122           2.302e-02              40.577           1.147e+01     
-170.000         -90.000            8.060e-02           5.949e-02              52.997           2.112e-02              38.250           8.821e+00     
-169.000         -90.000            6.522e-02           4.600e-02              54.459           1.922e-02              35.626           6.644e+00     
-168.000         -90.000            4.861e-02           3.124e-02              57.028           1.737e-02              32.687           4.857e+00     
-167.000         -90.000            3.325e-02           1.766e-02              62.005           1.559e-02              29.417           3.429e+00     
-166.000         -90.000            2.142e-02           7.492e-03              73.596           1.393e-02              25.796           2.417e+00     
-165.000         -90.000            1.485e-02           2.456e-03             109.021           1.240e-02              21.809           2.251e+00     
-164.000         -90.000            1.446e-02           3.449e-03             169.979           1.101e-02              17.446           4.883e+00     
-163.000         -90.000            2.023e-02           1.044e-02             194.451           9.786e-03              12.703           6.557e+01     
