Theta [deg.]  Phi   [deg.]  Abs(Dir.)[      ]   Abs(Theta)[      ]  Phase(Theta)[deg.]  Abs(Phi  )[      ]  Phase(Phi  )[deg.]  Ax.Ratio[      ]    
------------------------------------------------------------------------------------------------------------------------------------------------------
-180.000         -90.000            5.029e-03           5.420e-08              48.611           5.029e-03              81.029           3.162e+02     
-179.000         -90.000            7.812e-03           2.797e-03             124.525           5.015e-03              80.591           2.625e+00     
-178.000         -90.000            1.557e-02           1.059e-02             124.691           4.977e-03              79.290           2.631e+00     
-177.000         -90.000            2.666e-02           2.173e-02             124.798           4.922e-03              77.142           3.171e+00     
-176.000         -90.000            3.873e-02           3.388e-02             124.928           4.858e-03              74.180           3.623e+00     
-175.000         -90.000            4.925e-02           4.446e-02             125.117           4.793e-03              70.454           3.878e+00     
-174.000         -90.000            5.599e-02           5.125e-02             125.412           4.738e-03              66.028           3.920e+00     
-173.000         -90.000            5.753e-02           5.283e-02             125.879           4.699e-03              60.987           3.767e+00     
-172.000         -90.000            5.355e-02           4.887e-02             126.636           4.683e-03              55.425           3.449e+00     
-171.000         -90.000            4.492e-02           4.023e-02             127.889           4.693e-03              49.441           3.004e+00     
-170.000         -90.000            3.348e-02           2.875e-02             130.093           4.728e-03              43.131           2.471e+00     
-169.000         -90.000            2.171e-02           1.692e-02             134.366           4.786e-03              36.576           1.912e+00     
-168.000         -90.000            1.219e-02           7.330e-03             144.366           4.862e-03              29.841           1.632e+00     
-167.000         -90.000            7.101e-03           2.147e-03             176.977           4.953e-03              22.973           4.757e+00     
-166.000         -90.000            7.756e-03           2.701e-03             244.632           5.055e-03              16.002           2.376e+00     
-165.000         -90.000            1.436e-02           9.193e-03             270.779           5.166e-03               8.949           1.381e+00     
-164.000         -90.000            2.594e-02           2.066e-02             279.392           5.285e-03               1.831           2.006e+00     
-163.000         -90.000            4.057e-02           3.515e-02             283.381           5.416e-03             354.667           2.739e+00     
