Theta [deg.]  Phi   [deg.]  Abs(Dir.)[      ]   Abs(Theta)[      ]  Phase(Theta)[deg.]  Abs(Phi  )[      ]  Phase(Phi  )[deg.]  Ax.Ratio[      ]    
------------------------------------------------------------------------------------------------------------------------------------------------------
-180.000         -90.000            1.283e-03           3.843e-08             296.910           1.283e-03             215.467           1.848e+02     
-179.000         -90.000            4.436e-03           3.163e-03             272.887           1.273e-03             214.048           2.110e+00     
-178.000         -90.000            1.307e-02           1.182e-02             272.999           1.249e-03             209.786           3.526e+00     
-177.000         -90.000            2.501e-02           2.378e-02             273.265           1.235e-03             202.773           4.684e+00     
-176.000         -90.000            3.730e-02           3.604e-02             273.701           1.262e-03             193.392           5.427e+00     
-175.000         -90.000            4.689e-02           4.552e-02             274.370           1.365e-03             182.475           5.778e+00     
-174.000         -90.000            5.143e-02           4.986e-02             275.381           1.573e-03             171.159           5.820e+00     
-173.000         -90.000            4.989e-02           4.799e-02             276.929           1.900e-03             160.421           5.662e+00     
-172.000         -90.000            4.282e-02           4.047e-02             279.384           2.346e-03             150.743           5.442e+00     
-171.000         -90.000            3.221e-02           2.932e-02             283.535           2.892e-03             142.145           5.421e+00     
-170.000         -90.000            2.103e-02           1.753e-02             291.333           3.503e-03             134.407           6.699e+00     
-169.000         -90.000            1.250e-02           8.363e-03             308.433           4.138e-03             127.242           1.022e+02     
-168.000         -90.000            9.284e-03           4.533e-03             347.564           4.752e-03             120.378           2.291e+00     
-167.000         -90.000            1.283e-02           7.523e-03              31.025           5.307e-03             113.582           1.244e+00     
-166.000         -90.000            2.300e-02           1.722e-02              51.377           5.780e-03             106.671           2.385e+00     
-165.000         -90.000            3.806e-02           3.190e-02              60.605           6.164e-03              99.502           4.078e+00     
-164.000         -90.000            5.509e-02           4.862e-02              65.698           6.467e-03              91.982           6.870e+00     
-163.000         -90.000            7.063e-02           6.391e-02              69.095           6.717e-03              84.067           1.312e+01     
