Theta [deg.]  Phi   [deg.]  Abs(Dir.)[      ]   Abs(Theta)[      ]  Phase(Theta)[deg.]  Abs(Phi  )[      ]  Phase(Phi  )[deg.]  Ax.Ratio[      ]    
------------------------------------------------------------------------------------------------------------------------------------------------------
-180.000         -90.000            2.566e-02           1.571e-08             113.952           2.566e-02             166.965           3.162e+02     
-179.000         -90.000            2.894e-02           3.742e-03              50.735           2.520e-02             166.309           2.967e+00     
-178.000         -90.000            3.798e-02           1.411e-02              50.833           2.387e-02             164.303           1.650e+00     
-177.000         -90.000            5.067e-02           2.880e-02              51.038           2.187e-02             160.817           1.461e+00     
-176.000         -90.000            6.406e-02           4.455e-02              51.363           1.950e-02             155.632           1.628e+00     
-175.000         -90.000            7.502e-02           5.789e-02              51.844           1.713e-02             148.477           1.861e+00     
-174.000         -90.000            8.101e-02           6.589e-02              52.544           1.512e-02             139.129           2.093e+00     
-173.000         -90.000            8.067e-02           6.684e-02              53.563           1.383e-02             127.646           2.330e+00     
-172.000         -90.000            7.416e-02           6.063e-02              55.081           1.353e-02             114.636           2.622e+00     
-171.000         -90.000            6.311e-02           4.872e-02              57.446           1.439e-02             101.264           3.122e+00     
-170.000         -90.000            5.031e-02           3.385e-02              61.369           1.646e-02              88.747           4.408e+00     
-169.000         -90.000            3.905e-02           1.940e-02              68.665           1.965e-02              77.783           1.254e+01     
-168.000         -90.000            3.239e-02           8.649e-03              84.859           2.374e-02              68.476           7.887e+00     
-167.000         -90.000            3.248e-02           4.054e-03             125.013           2.843e-02              60.602           3.024e+00     
-166.000         -90.000            4.008e-02           6.733e-03             172.727           3.335e-02              53.844           2.682e+00     
-165.000         -90.000            5.432e-02           1.623e-02             193.922           3.809e-02              47.911           3.633e+00     
-164.000         -90.000            7.291e-02           3.065e-02             203.267           4.227e-02              42.573           5.960e+00     
-163.000         -90.000            9.260e-02           4.706e-02             208.519           4.554e-02              37.654           1.252e+01     
