Theta [deg.]  Phi   [deg.]  Abs(Dir.)[      ]   Abs(Theta)[      ]  Phase(Theta)[deg.]  Abs(Phi  )[      ]  Phase(Phi  )[deg.]  Ax.Ratio[      ]    
------------------------------------------------------------------------------------------------------------------------------------------------------
-180.000         -90.000            3.892e-03           2.067e-09             296.609           3.892e-03              73.304           3.162e+02     
-179.000         -90.000            7.417e-03           3.568e-03             120.656           3.848e-03              73.152           2.275e+00     
-178.000         -90.000            1.732e-02           1.360e-02             120.760           3.720e-03              72.696           2.932e+00     
-177.000         -90.000            3.166e-02           2.815e-02             120.925           3.513e-03              71.922           3.966e+00     
-176.000         -90.000            4.766e-02           4.442e-02             121.180           3.240e-03              70.801           4.956e+00     
-175.000         -90.000            6.221e-02           5.930e-02             121.554           2.915e-03              69.287           5.812e+00     
-174.000         -90.000            7.250e-02           6.995e-02             122.099           2.554e-03              67.311           6.485e+00     
-173.000         -90.000            7.655e-02           7.437e-02             122.890           2.178e-03              64.771           6.939e+00     
-172.000         -90.000            7.361e-02           7.180e-02             124.054           1.804e-03              61.515           7.149e+00     
-171.000         -90.000            6.429e-02           6.284e-02             125.806           1.451e-03              57.316           7.097e+00     
-170.000         -90.000            5.044e-02           4.931e-02             128.558           1.134e-03              51.855           6.785e+00     
-169.000         -90.000            3.479e-02           3.392e-02             133.163           8.664e-04              44.672           6.260e+00     
-168.000         -90.000            2.042e-02           1.976e-02             141.657           6.583e-04              35.202           5.729e+00     
-167.000         -90.000            1.019e-02           9.672e-03             159.509           5.152e-04              22.992           6.477e+00     
-166.000         -90.000            6.160e-03           5.721e-03             196.559           4.389e-04               8.267           2.692e+01     
-165.000         -90.000            9.259e-03           8.832e-03             236.217           4.270e-04             352.542           5.124e+00     
-164.000         -90.000            1.908e-02           1.861e-02             256.376           4.739e-04             338.055           6.336e+00     
-163.000         -90.000            3.400e-02           3.342e-02             266.004           5.709e-04             326.259           8.850e+00     
