Theta [deg.]  Phi   [deg.]  Abs(Dir.)[      ]   Abs(Theta)[      ]  Phase(Theta)[deg.]  Abs(Phi  )[      ]  Phase(Phi  )[deg.]  Ax.Ratio[      ]    
------------------------------------------------------------------------------------------------------------------------------------------------------
-180.000         -90.000            7.922e-02           1.268e-08             332.985           7.922e-02              31.927           3.162e+02     
-179.000         -90.000            8.016e-02           1.996e-03             148.510           7.817e-02              31.492           7.063e+00     
-178.000         -90.000            8.269e-02           7.543e-03             148.695           7.514e-02              30.174           3.681e+00     
-177.000         -90.000            8.583e-02           1.537e-02             149.014           7.046e-02              27.928           2.671e+00     
-176.000         -90.000            8.829e-02           2.367e-02             149.504           6.461e-02              24.680           2.319e+00     
-175.000         -90.000            8.873e-02           3.055e-02             150.222           5.818e-02              20.338           2.310e+00     
-174.000         -90.000            8.622e-02           3.445e-02             151.257           5.178e-02              14.807           2.575e+00     
-173.000         -90.000            8.045e-02           3.448e-02             152.768           4.597e-02               8.031           3.186e+00     
-172.000         -90.000            7.191e-02           3.070e-02             155.036           4.121e-02               0.049           4.562e+00     
-171.000         -90.000            6.181e-02           2.404e-02             158.611           3.777e-02             351.054           9.414e+00     
-170.000         -90.000            5.191e-02           1.615e-02             164.702           3.576e-02             341.416           3.765e+01     
-169.000         -90.000            4.409e-02           9.016e-03             176.369           3.507e-02             331.620           5.748e+00     
-168.000         -90.000            3.997e-02           4.499e-03             201.505           3.547e-02             322.134           3.381e+00     
-167.000         -90.000            4.054e-02           3.948e-03             244.299           3.659e-02             313.279           3.311e+00     
-166.000         -90.000            4.587e-02           7.870e-03             275.771           3.800e-02             305.193           5.208e+00     
-165.000         -90.000            5.512e-02           1.581e-02             290.658           3.931e-02             297.861           1.758e+01     
-164.000         -90.000            6.658e-02           2.644e-02             298.444           4.013e-02             291.180           1.610e+01     
-163.000         -90.000            7.804e-02           3.782e-02             303.303           4.022e-02             285.011           6.214e+00     
