Theta [deg.]  Phi   [deg.]  Abs(Dir.)[      ]   Abs(Theta)[      ]  Phase(Theta)[deg.]  Abs(Phi  )[      ]  Phase(Phi  )[deg.]  Ax.Ratio[      ]    
------------------------------------------------------------------------------------------------------------------------------------------------------
-180.000         -90.000            3.783e-02           1.021e-07              84.592           3.783e-02             216.182           3.162e+02     
-179.000         -90.000            4.152e-02           4.229e-03             105.259           3.729e-02             215.684           3.217e+00     
-178.000         -90.000            5.113e-02           1.543e-02             105.523           3.570e-02             214.180           1.717e+00     
-177.000         -90.000            6.311e-02           2.988e-02             105.935           3.323e-02             211.618           1.326e+00     
-176.000         -90.000            7.296e-02           4.278e-02             106.580           3.017e-02             207.915           1.304e+00     
-175.000         -90.000            7.676e-02           4.991e-02             107.571           2.684e-02             202.965           1.383e+00     
-174.000         -90.000            7.259e-02           4.901e-02             109.122           2.358e-02             196.671           1.445e+00     
-173.000         -90.000            6.120e-02           4.053e-02             111.655           2.068e-02             188.985           1.501e+00     
-172.000         -90.000            4.579e-02           2.744e-02             116.147           1.835e-02             179.989           1.677e+00     
-171.000         -90.000            3.093e-02           1.423e-02             125.378           1.670e-02             169.957           2.451e+00     
-170.000         -90.000            2.109e-02           5.348e-03             149.412           1.574e-02             159.365           1.322e+01     
-169.000         -90.000            1.908e-02           3.731e-03             205.518           1.535e-02             148.780           2.636e+00     
-168.000         -90.000            2.518e-02           9.837e-03             242.413           1.534e-02             138.682           1.391e+00     
-167.000         -90.000            3.703e-02           2.153e-02             255.956           1.550e-02             129.348           2.033e+00     
-166.000         -90.000            5.041e-02           3.483e-02             262.539           1.558e-02             120.844           3.177e+00     
-165.000         -90.000            6.067e-02           4.528e-02             266.829           1.539e-02             113.086           4.995e+00     
-164.000         -90.000            6.423e-02           4.943e-02             270.489           1.479e-02             105.917           8.814e+00     
-163.000         -90.000            5.974e-02           4.600e-02             274.509           1.374e-02              99.146           2.936e+01     
