Theta [deg.]  Phi   [deg.]  Abs(Dir.)[      ]   Abs(Theta)[      ]  Phase(Theta)[deg.]  Abs(Phi  )[      ]  Phase(Phi  )[deg.]  Ax.Ratio[      ]    
------------------------------------------------------------------------------------------------------------------------------------------------------
-180.000         -90.000            7.832e-04           7.021e-09              88.394           7.832e-04             205.859           3.162e+02     
-179.000         -90.000            4.601e-03           3.829e-03              71.292           7.722e-04             205.028           3.410e+00     
-178.000         -90.000            1.509e-02           1.434e-02              71.410           7.418e-04             202.483           5.967e+00     
-177.000         -90.000            2.963e-02           2.894e-02              71.641           6.993e-04             198.141           8.072e+00     
-176.000         -90.000            4.465e-02           4.400e-02              72.013           6.551e-04             191.927           9.490e+00     
-175.000         -90.000            5.645e-02           5.583e-02              72.583           6.217e-04             183.895           1.019e+01     
-174.000         -90.000            6.220e-02           6.159e-02              73.443           6.108e-04             174.369           1.023e+01     
-173.000         -90.000            6.059e-02           5.996e-02              74.756           6.318e-04             164.025           9.743e+00     
-172.000         -90.000            5.219e-02           5.150e-02              76.816           6.899e-04             153.738           8.876e+00     
-171.000         -90.000            3.922e-02           3.844e-02              80.230           7.855e-04             144.237           7.814e+00     
-170.000         -90.000            2.504e-02           2.413e-02              86.391           9.136e-04             135.921           6.865e+00     
-169.000         -90.000            1.325e-02           1.218e-02              99.105           1.065e-03             128.856           7.275e+00     
-168.000         -90.000            6.801e-03           5.574e-03             128.897           1.227e-03             122.919           2.493e+01     
-167.000         -90.000            7.285e-03           5.901e-03             175.858           1.384e-03             117.929           2.627e+00     
-166.000         -90.000            1.455e-02           1.303e-02             203.517           1.524e-03             113.708           2.923e+00     
-165.000         -90.000            2.678e-02           2.515e-02             215.575           1.634e-03             110.112           4.090e+00     
-164.000         -90.000            4.097e-02           3.927e-02             221.845           1.705e-03             107.041           5.328e+00     
-163.000         -90.000            5.367e-02           5.194e-02             225.822           1.733e-03             104.425           6.474e+00     
