Theta [deg.]  Phi   [deg.]  Abs(Dir.)[      ]   Abs(Theta)[      ]  Phase(Theta)[deg.]  Abs(Phi  )[      ]  Phase(Phi  )[deg.]  Ax.Ratio[      ]    
------------------------------------------------------------------------------------------------------------------------------------------------------
-180.000         -90.000            2.166e-02           6.285e-08              44.672           2.166e-02             184.451           3.162e+02     
-179.000         -90.000            2.312e-02           1.867e-03             289.709           2.125e-02             183.821           3.533e+00     
-178.000         -90.000            2.724e-02           7.130e-03             289.745           2.011e-02             181.876           1.849e+00     
-177.000         -90.000            3.320e-02           1.481e-02             290.010           1.839e-02             178.476           1.493e+00     
-176.000         -90.000            3.984e-02           2.350e-02             290.461           1.634e-02             173.388           1.692e+00     
-175.000         -90.000            4.587e-02           3.159e-02             291.124           1.429e-02             166.316           2.169e+00     
-174.000         -90.000            5.014e-02           3.760e-02             292.059           1.255e-02             157.002           2.927e+00     
-173.000         -90.000            5.188e-02           4.045e-02             293.366           1.143e-02             145.472           4.308e+00     
-172.000         -90.000            5.086e-02           3.968e-02             295.205           1.118e-02             132.351           8.066e+00     
-171.000         -90.000            4.747e-02           3.550e-02             297.851           1.197e-02             118.885           1.275e+02     
-170.000         -90.000            4.263e-02           2.880e-02             301.806           1.383e-02             106.376           7.902e+00     
-169.000         -90.000            3.767e-02           2.096e-02             308.022           1.671e-02              95.557           3.461e+00     
-168.000         -90.000            3.406e-02           1.362e-02             318.477           2.045e-02              86.511           2.120e+00     
-167.000         -90.000            3.313e-02           8.351e-03             337.009           2.478e-02              78.977           1.798e+00     
-166.000         -90.000            3.582e-02           6.413e-03               6.560           2.940e-02              72.609           2.445e+00     
-165.000         -90.000            4.245e-02           8.487e-03              36.842           3.396e-02              67.102           4.751e+00     
-164.000         -90.000            5.269e-02           1.456e-02              56.472           3.812e-02              62.214           2.230e+01     
-163.000         -90.000            6.550e-02           2.393e-02              67.858           4.157e-02              57.766           1.177e+01     
