Theta [deg.]  Phi   [deg.]  Abs(Dir.)[      ]   Abs(Theta)[      ]  Phase(Theta)[deg.]  Abs(Phi  )[      ]  Phase(Phi  )[deg.]  Ax.Ratio[      ]    
------------------------------------------------------------------------------------------------------------------------------------------------------
-180.000         -90.000            2.864e-04           4.165e-07             196.403           2.860e-04              74.674           3.082e+01     
-179.000         -90.000            2.759e-03           2.461e-03             253.665           2.973e-04              74.044           3.162e+02     
-178.000         -90.000            9.032e-03           8.700e-03             254.278           3.316e-04              72.152           1.434e+02     
-177.000         -90.000            1.637e-02           1.598e-02             254.937           3.890e-04              69.291           6.672e+01     
-176.000         -90.000            2.159e-02           2.113e-02             255.926           4.679e-04              65.756           3.888e+01     
-175.000         -90.000            2.248e-02           2.192e-02             257.534           5.635e-04              61.733           2.345e+01     
-174.000         -90.000            1.876e-02           1.809e-02             260.347           6.674e-04              57.277           1.370e+01     
-173.000         -90.000            1.219e-02           1.142e-02             265.861           7.679e-04              52.343           7.317e+00     
-172.000         -90.000            5.828e-03           4.975e-03             279.214           8.528e-04              46.827           3.266e+00     
-171.000         -90.000            2.643e-03           1.731e-03             321.540           9.124e-04              40.597           1.455e+00     
-170.000         -90.000            4.228e-03           3.286e-03              20.242           9.420e-04              33.512           1.037e+01     
-169.000         -90.000            1.010e-02           9.156e-03              40.892           9.432e-04              25.445           1.282e+01     
-168.000         -90.000            1.790e-02           1.698e-02              48.881           9.228e-04              16.322           8.283e+00     
-167.000         -90.000            2.444e-02           2.354e-02              53.323           8.909e-04               6.153           7.135e+00     
-166.000         -90.000            2.701e-02           2.616e-02              56.762           8.567e-04             355.070           6.324e+00     
-165.000         -90.000            2.462e-02           2.379e-02              60.481           8.262e-04             343.319           5.514e+00     
-164.000         -90.000            1.832e-02           1.752e-02              65.889           8.004e-04             331.192           4.695e+00     
-163.000         -90.000            1.080e-02           1.003e-02              75.950           7.761e-04             318.935           4.103e+00     
