Theta [deg.]  Phi   [deg.]  Abs(Dir.)[      ]   Abs(Theta)[      ]  Phase(Theta)[deg.]  Abs(Phi  )[      ]  Phase(Phi  )[deg.]  Ax.Ratio[      ]    
------------------------------------------------------------------------------------------------------------------------------------------------------
-180.000         -90.000            1.358e-03           1.527e-07             101.056           1.358e-03             232.584           1.260e+02     
-179.000         -90.000            6.390e-03           4.990e-03             255.382           1.400e-03             231.484           5.795e+00     
-178.000         -90.000            1.903e-02           1.749e-02             255.610           1.532e-03             228.301           7.884e+00     
-177.000         -90.000            3.287e-02           3.111e-02             255.942           1.758e-03             223.631           8.192e+00     
-176.000         -90.000            4.097e-02           3.889e-02             256.507           2.079e-03             218.143           7.202e+00     
-175.000         -90.000            3.939e-02           3.692e-02             257.510           2.475e-03             212.337           5.633e+00     
-174.000         -90.000            2.918e-02           2.628e-02             259.454           2.902e-03             206.445           3.929e+00     
-173.000         -90.000            1.575e-02           1.247e-02             264.010           3.288e-03             200.465           2.317e+00     
-172.000         -90.000            6.067e-03           2.517e-03             281.743           3.550e-03             194.231           1.194e+00     
-171.000         -90.000            5.021e-03           1.411e-03              29.022           3.610e-03             187.439           5.878e+00     
-170.000         -90.000            1.299e-02           9.563e-03              57.354           3.428e-03             179.621           2.236e+00     
-169.000         -90.000            2.572e-02           2.270e-02              63.830           3.026e-03             170.043           2.886e+00     
-168.000         -90.000            3.660e-02           3.411e-02              67.413           2.497e-03             157.545           3.696e+00     
-167.000         -90.000            4.013e-02           3.812e-02              70.802           2.005e-03             140.510           4.680e+00     
-166.000         -90.000            3.476e-02           3.300e-02              75.447           1.751e-03             117.937           6.617e+00     
-165.000         -90.000            2.371e-02           2.178e-02              83.680           1.928e-03              92.534           2.373e+01     
-164.000         -90.000            1.335e-02           1.069e-02             101.918           2.660e-03              70.117           4.530e+00     
-163.000         -90.000            9.984e-03           6.019e-03             144.316           3.965e-03              53.198           1.233e+00     
