Theta [deg.]  Phi   [deg.]  Abs(Dir.)[      ]   Abs(Theta)[      ]  Phase(Theta)[deg.]  Abs(Phi  )[      ]  Phase(Phi  )[deg.]  Ax.Ratio[      ]    
------------------------------------------------------------------------------------------------------------------------------------------------------
-180.000         -90.000            1.253e-02           3.431e-07             276.716           1.253e-02              30.011           2.081e+02     
-179.000         -90.000            1.705e-02           4.532e-03             297.246           1.252e-02              29.537           1.665e+00     
-178.000         -90.000            2.860e-02           1.612e-02             297.569           1.248e-02              28.099           1.137e+00     
-177.000         -90.000            4.241e-02           3.002e-02             298.042           1.239e-02              25.757           1.560e+00     
-176.000         -90.000            5.274e-02           4.053e-02             298.806           1.221e-02              22.598           1.842e+00     
-175.000         -90.000            5.529e-02           4.339e-02             300.063           1.190e-02              18.710           1.975e+00     
-174.000         -90.000            4.893e-02           3.752e-02             302.226           1.140e-02              14.157           1.984e+00     
-173.000         -90.000            3.615e-02           2.548e-02             306.297           1.066e-02               8.953           1.958e+00     
-172.000         -90.000            2.204e-02           1.238e-02             315.453           9.659e-03               3.043           2.294e+00     
-171.000         -90.000            1.224e-02           3.843e-03             343.881           8.401e-03             356.251           9.959e+00     
-170.000         -90.000            1.062e-02           3.661e-03              51.909           6.954e-03             348.228           1.788e+00     
-169.000         -90.000            1.769e-02           1.225e-02              82.432           5.442e-03             338.343           1.615e+00     
-168.000         -90.000            3.053e-02           2.649e-02              92.475           4.035e-03             325.500           3.402e+00     
-167.000         -90.000            4.389e-02           4.095e-02              97.463           2.931e-03             308.035           7.747e+00     
-166.000         -90.000            5.247e-02           5.015e-02             100.971           2.325e-03             284.623           7.630e+01     
-165.000         -90.000            5.299e-02           5.062e-02             104.391           2.374e-03             257.670           1.066e+01     
-164.000         -90.000            4.554e-02           4.238e-02             108.841           3.162e-03             233.521           4.565e+00     
-163.000         -90.000            3.356e-02           2.888e-02             116.119           4.681e-03             215.235           2.528e+00     
