Theta [deg.]  Phi   [deg.]  Abs(Dir.)[      ]   Abs(Theta)[      ]  Phase(Theta)[deg.]  Abs(Phi  )[      ]  Phase(Phi  )[deg.]  Ax.Ratio[      ]    
------------------------------------------------------------------------------------------------------------------------------------------------------
-180.000         -90.000            1.715e-02           3.254e-06             359.676           1.714e-02              37.672           1.179e+02     
-179.000         -90.000            2.469e-02           8.018e-03              14.739           1.667e-02              35.975           5.721e+00     
-178.000         -90.000            4.088e-02           2.512e-02              15.009           1.576e-02              31.278           7.195e+00     
-177.000         -90.000            5.250e-02           3.764e-02              15.339           1.486e-02              23.738           1.513e+01     
-176.000         -90.000            5.001e-02           3.557e-02              15.993           1.444e-02              13.998           6.337e+01     
-175.000         -90.000            3.540e-02           2.058e-02              17.603           1.482e-02               3.329           8.097e+00     
-174.000         -90.000            2.065e-02           4.710e-03              23.942           1.594e-02             353.193           4.436e+00     
-173.000         -90.000            1.816e-02           7.182e-04             161.100           1.744e-02             344.552           8.519e+01     
-172.000         -90.000            3.076e-02           1.202e-02             185.555           1.873e-02             337.652           4.137e+00     
-171.000         -90.000            4.933e-02           3.007e-02             189.028           1.926e-02             332.294           3.105e+00     
-170.000         -90.000            5.979e-02           4.113e-02             191.233           1.866e-02             328.126           2.801e+00     
-169.000         -90.000            5.397e-02           3.704e-02             194.191           1.693e-02             324.786           2.426e+00     
-168.000         -90.000            3.569e-02           2.136e-02             200.361           1.433e-02             321.928           1.855e+00     
-167.000         -90.000            1.764e-02           6.320e-03             220.295           1.132e-02             319.182           1.393e+00     
-166.000         -90.000            1.154e-02           3.158e-03             298.550           8.382e-03             316.088           7.306e+00     
-165.000         -90.000            1.945e-02           1.358e-02             337.627           5.873e-03             312.001           4.829e+00     
-164.000         -90.000            3.278e-02           2.881e-02             348.032           3.979e-03             306.001           4.344e+00     
-163.000         -90.000            3.947e-02           3.675e-02             353.914           2.727e-03             297.006           4.483e+00     
