Theta [deg.]  Phi   [deg.]  Abs(Dir.)[      ]   Abs(Theta)[      ]  Phase(Theta)[deg.]  Abs(Phi  )[      ]  Phase(Phi  )[deg.]  Ax.Ratio[      ]    
------------------------------------------------------------------------------------------------------------------------------------------------------
-180.000         -90.000            6.094e-04           1.937e-07             275.936           6.092e-04             144.288           7.507e+01     
-179.000         -90.000            2.781e-03           2.139e-03              24.458           6.410e-04             146.248           2.372e+00     
-178.000         -90.000            8.968e-03           8.217e-03              24.885           7.512e-04             151.561           4.267e+00     
-177.000         -90.000            1.820e-02           1.722e-02              25.231           9.776e-04             158.542           5.926e+00     
-176.000         -90.000            2.902e-02           2.764e-02              25.654           1.377e-03             165.406           7.141e+00     
-175.000         -90.000            3.977e-02           3.776e-02              26.209           2.013e-03             171.092           7.803e+00     
-174.000         -90.000            4.885e-02           4.591e-02              26.949           2.947e-03             175.320           7.882e+00     
-173.000         -90.000            5.498e-02           5.076e-02              27.943           4.225e-03             178.229           7.440e+00     
-172.000         -90.000            5.743e-02           5.157e-02              29.295           5.865e-03             180.066           6.612e+00     
-171.000         -90.000            5.613e-02           4.827e-02              31.166           7.854e-03             181.060           5.567e+00     
-170.000         -90.000            5.166e-02           4.152e-02              33.835           1.014e-02             181.391           4.469e+00     
-169.000         -90.000            4.517e-02           3.253e-02              37.797           1.263e-02             181.180           3.445e+00     
-168.000         -90.000            3.814e-02           2.292e-02              44.019           1.522e-02             180.516           2.579e+00     
-167.000         -90.000            3.218e-02           1.441e-02              54.527           1.777e-02             179.456           1.936e+00     
-166.000         -90.000            2.866e-02           8.538e-03              73.346           2.013e-02             178.035           1.657e+00     
-165.000         -90.000            2.858e-02           6.413e-03             103.672           2.217e-02             176.272           2.016e+00     
-164.000         -90.000            3.230e-02           8.535e-03             134.476           2.377e-02             174.173           3.243e+00     
-163.000         -90.000            3.957e-02           1.471e-02             154.038           2.486e-02             171.733           6.657e+00     
