Theta [deg.]  Phi   [deg.]  Abs(Dir.)[      ]   Abs(Theta)[      ]  Phase(Theta)[deg.]  Abs(Phi  )[      ]  Phase(Phi  )[deg.]  Ax.Ratio[      ]    
------------------------------------------------------------------------------------------------------------------------------------------------------
-180.000         -90.000            1.754e-02           3.646e-06             270.756           1.754e-02             303.213           1.292e+02     
-179.000         -90.000            2.532e-02           8.227e-03             306.634           1.709e-02             301.324           2.303e+01     
-178.000         -90.000            4.194e-02           2.563e-02             307.110           1.631e-02             296.182           1.073e+01     
-177.000         -90.000            5.352e-02           3.785e-02             307.521           1.567e-02             288.100           6.453e+00     
-176.000         -90.000            5.048e-02           3.477e-02             308.251           1.571e-02             277.995           4.039e+00     
-175.000         -90.000            3.561e-02           1.895e-02             310.065           1.666e-02             267.382           2.567e+00     
-174.000         -90.000            2.190e-02           3.513e-03             318.146           1.839e-02             257.707           2.772e+00     
-173.000         -90.000            2.179e-02           1.434e-03             102.607           2.035e-02             249.705           7.287e+00     
-172.000         -90.000            3.677e-02           1.493e-02             118.258           2.184e-02             243.414           1.987e+00     
-171.000         -90.000            5.590e-02           3.368e-02             121.219           2.223e-02             238.521           1.717e+00     
-170.000         -90.000            6.434e-02           4.315e-02             123.240           2.119e-02             234.623           1.695e+00     
-169.000         -90.000            5.506e-02           3.622e-02             126.125           1.884e-02             231.323           1.531e+00     
-168.000         -90.000            3.423e-02           1.865e-02             132.640           1.558e-02             228.221           1.142e+00     
-167.000         -90.000            1.627e-02           4.249e-03             157.746           1.202e-02             224.865           1.961e+00     
-166.000         -90.000            1.257e-02           3.863e-03             248.535           8.707e-03             220.665           4.410e+00     
-165.000         -90.000            2.303e-02           1.701e-02             275.950           6.019e-03             214.828           2.130e+00     
-164.000         -90.000            3.683e-02           3.271e-02             283.912           4.115e-03             206.388           2.907e+00     
-163.000         -90.000            4.148e-02           3.851e-02             289.247           2.973e-03             194.705           3.612e+00     
