Theta [deg.]  Phi   [deg.]  Abs(Dir.)[      ]   Abs(Theta)[      ]  Phase(Theta)[deg.]  Abs(Phi  )[      ]  Phase(Phi  )[deg.]  Ax.Ratio[      ]    
------------------------------------------------------------------------------------------------------------------------------------------------------
-180.000         -90.000            9.735e-05           2.570e-08             303.468           9.733e-05              14.230           6.518e+01     
-179.000         -90.000            3.018e-03           2.915e-03             243.410           1.029e-04               9.055           6.632e+00     
-178.000         -90.000            1.124e-02           1.111e-02             243.502           1.286e-04             355.712           1.006e+01     
-177.000         -90.000            2.330e-02           2.310e-02             243.727           2.025e-04             339.986           1.075e+01     
-176.000         -90.000            3.705e-02           3.668e-02             244.084           3.665e-04             327.070           1.008e+01     
-175.000         -90.000            5.009e-02           4.942e-02             244.600           6.725e-04             317.953           8.958e+00     
-174.000         -90.000            6.021e-02           5.903e-02             245.322           1.174e-03             311.571           7.773e+00     
-173.000         -90.000            6.574e-02           6.382e-02             246.326           1.919e-03             306.864           6.672e+00     
-172.000         -90.000            6.594e-02           6.299e-02             247.731           2.945e-03             303.143           5.705e+00     
-171.000         -90.000            6.107e-02           5.681e-02             249.741           4.267e-03             299.996           4.897e+00     
-170.000         -90.000            5.239e-02           4.651e-02             252.714           5.880e-03             297.179           4.289e+00     
-169.000         -90.000            4.182e-02           3.407e-02             257.351           7.749e-03             294.539           4.009e+00     
-168.000         -90.000            3.170e-02           2.189e-02             265.153           9.814e-03             291.982           4.574e+00     
-167.000         -90.000            2.429e-02           1.230e-02             279.597           1.199e-02             289.444           1.161e+01     
-166.000         -90.000            2.135e-02           7.181e-03             307.145           1.417e-02             286.879           5.942e+00     
-165.000         -90.000            2.386e-02           7.622e-03             344.219           1.623e-02             284.253           1.969e+00     
-164.000         -90.000            3.181e-02           1.374e-02               9.990           1.807e-02             281.535           1.150e+00     
-163.000         -90.000            4.423e-02           2.467e-02              23.669           1.956e-02             278.696           1.335e+00     
