Theta [deg.]  Phi   [deg.]  Abs(Dir.)[      ]   Abs(Theta)[      ]  Phase(Theta)[deg.]  Abs(Phi  )[      ]  Phase(Phi  )[deg.]  Ax.Ratio[      ]    
------------------------------------------------------------------------------------------------------------------------------------------------------
-180.000         -90.000            1.069e-02           1.288e-07             210.889           1.069e-02             304.704           2.888e+02     
-179.000         -90.000            1.372e-02           3.385e-03             260.540           1.033e-02             303.834           3.055e+00     
-178.000         -90.000            2.196e-02           1.264e-02             260.795           9.323e-03             301.112           2.765e+00     
-177.000         -90.000            3.330e-02           2.543e-02             261.008           7.873e-03             296.102           3.833e+00     
-176.000         -90.000            4.483e-02           3.855e-02             261.287           6.284e-03             287.986           6.251e+00     
-175.000         -90.000            5.360e-02           4.869e-02             261.691           4.910e-03             275.570           1.438e+01     
-174.000         -90.000            5.741e-02           5.331e-02             262.297           4.098e-03             258.031           5.220e+01     
-173.000         -90.000            5.539e-02           5.125e-02             263.235           4.134e-03             237.091           8.518e+00     
-172.000         -90.000            4.825e-02           4.305e-02             264.751           5.200e-03             217.385           4.142e+00     
-171.000         -90.000            3.814e-02           3.080e-02             267.357           7.339e-03             201.969           2.368e+00     
-170.000         -90.000            2.813e-02           1.768e-02             272.425           1.045e-02             190.626           1.350e+00     
-169.000         -90.000            2.147e-02           7.153e-03             284.752           1.431e-02             182.084           1.514e+00     
-168.000         -90.000            2.074e-02           2.138e-03             326.953           1.860e-02             175.275           6.783e+00     
-167.000         -90.000            2.720e-02           4.285e-03              30.811           2.292e-02             169.497           3.902e+00     
-166.000         -90.000            4.047e-02           1.357e-02              51.401           2.690e-02             164.304           1.717e+00     
-165.000         -90.000            5.847e-02           2.828e-02              58.935           3.019e-02             159.405           1.205e+00     
-164.000         -90.000            7.796e-02           4.541e-02              62.869           3.255e-02             154.601           1.184e+00     
-163.000         -90.000            9.518e-02           6.137e-02              65.511           3.381e-02             149.742           1.370e+00     
