Theta [deg.]  Phi   [deg.]  Abs(Dir.)[      ]   Abs(Theta)[      ]  Phase(Theta)[deg.]  Abs(Phi  )[      ]  Phase(Phi  )[deg.]  Ax.Ratio[      ]    
------------------------------------------------------------------------------------------------------------------------------------------------------
-180.000         -90.000            2.146e-03           5.146e-08             191.070           2.146e-03             306.985           2.270e+02     
-179.000         -90.000            6.716e-03           4.486e-03             165.617           2.230e-03             305.460           2.954e+00     
-178.000         -90.000            1.825e-02           1.575e-02             165.790           2.495e-03             301.312           3.898e+00     
-177.000         -90.000            3.139e-02           2.842e-02             166.194           2.975e-03             295.511           4.173e+00     
-176.000         -90.000            4.014e-02           3.645e-02             166.925           3.696e-03             289.095           3.825e+00     
-175.000         -90.000            4.069e-02           3.604e-02             168.225           4.648e-03             282.755           3.137e+00     
-174.000         -90.000            3.321e-02           2.744e-02             170.682           5.766e-03             276.756           2.315e+00     
-173.000         -90.000            2.180e-02           1.487e-02             176.083           6.926e-03             271.073           1.481e+00     
-172.000         -90.000            1.249e-02           4.525e-03             192.791           7.966e-03             265.544           1.521e+00     
-171.000         -90.000            1.034e-02           1.624e-03             267.155           8.719e-03             259.957           2.189e+01     
-170.000         -90.000            1.702e-02           7.961e-03             313.632           9.058e-03             254.087           1.755e+00     
-169.000         -90.000            2.993e-02           2.100e-02             324.311           8.929e-03             247.693           1.635e+00     
-168.000         -90.000            4.339e-02           3.502e-02             328.787           8.365e-03             240.513           2.048e+00     
-167.000         -90.000            5.121e-02           4.373e-02             331.640           7.476e-03             232.243           2.465e+00     
-166.000         -90.000            4.959e-02           4.317e-02             334.326           6.425e-03             222.549           2.857e+00     
-165.000         -90.000            3.895e-02           3.356e-02             337.970           5.386e-03             211.096           3.320e+00     
-164.000         -90.000            2.383e-02           1.932e-02             344.747           4.507e-03             197.674           4.474e+00     
-163.000         -90.000            1.101e-02           7.134e-03               2.628           3.879e-03             182.431           3.162e+02     
