Theta [deg.]  Phi   [deg.]  Abs(Dir.)[      ]   Abs(Theta)[      ]  Phase(Theta)[deg.]  Abs(Phi  )[      ]  Phase(Phi  )[deg.]  Ax.Ratio[      ]    
------------------------------------------------------------------------------------------------------------------------------------------------------
-180.000         -90.000            8.590e-03           1.579e-06             131.201           8.589e-03             291.801           2.221e+02     
-179.000         -90.000            1.106e-02           2.239e-03             255.958           8.817e-03             291.067           4.082e+00     
-178.000         -90.000            1.733e-02           7.804e-03             256.948           9.525e-03             288.944           3.508e+00     
-177.000         -90.000            2.425e-02           1.352e-02             257.838           1.073e-02             285.677           4.066e+00     
-176.000         -90.000            2.856e-02           1.615e-02             259.140           1.241e-02             281.572           5.090e+00     
-175.000         -90.000            2.875e-02           1.421e-02             261.391           1.454e-02             276.908           7.340e+00     
-174.000         -90.000            2.585e-02           8.874e-03             265.954           1.697e-02             271.892           2.031e+01     
-173.000         -90.000            2.276e-02           3.281e-03             278.368           1.948e-02             266.651           1.395e+01     
-172.000         -90.000            2.249e-02           7.554e-04             335.567           2.173e-02             261.237           5.585e+00     
-171.000         -90.000            2.625e-02           2.924e-03              41.026           2.333e-02             255.643           5.410e+00     
-170.000         -90.000            3.270e-02           8.789e-03              55.682           2.391e-02             249.804           9.135e+00     
-169.000         -90.000            3.850e-02           1.528e-02              61.713           2.322e-02             243.598           6.210e+01     
-168.000         -90.000            4.022e-02           1.898e-02              66.003           2.124e-02             236.839           1.250e+01     
-167.000         -90.000            3.625e-02           1.802e-02              70.740           1.823e-02             229.262           5.273e+00     
-166.000         -90.000            2.778e-02           1.312e-02              78.044           1.467e-02             220.519           2.950e+00     
-165.000         -90.000            1.827e-02           7.162e-03              92.590           1.110e-02             210.202           1.735e+00     
-164.000         -90.000            1.161e-02           3.591e-03             126.065           8.020e-03             197.974           1.681e+00     
-163.000         -90.000            1.016e-02           4.509e-03             172.498           5.647e-03             183.847           1.013e+01     
