Theta [deg.]  Phi   [deg.]  Abs(Dir.)[      ]   Abs(Theta)[      ]  Phase(Theta)[deg.]  Abs(Phi  )[      ]  Phase(Phi  )[deg.]  Ax.Ratio[      ]    
------------------------------------------------------------------------------------------------------------------------------------------------------
-180.000         -90.000            6.789e-05           1.462e-08             320.179           6.787e-05             222.838           6.870e+01     
-179.000         -90.000            2.815e-03           2.740e-03              81.487           7.483e-05             227.391           1.100e+01     
-178.000         -90.000            9.480e-03           9.377e-03              81.827           1.032e-04             237.678           2.351e+01     
-177.000         -90.000            1.622e-02           1.605e-02              82.415           1.700e-04             247.492           3.810e+01     
-176.000         -90.000            1.918e-02           1.889e-02              83.485           2.926e-04             253.506           4.706e+01     
-175.000         -90.000            1.675e-02           1.627e-02              85.534           4.783e-04             255.725           3.522e+01     
-174.000         -90.000            1.051e-02           9.796e-03              90.005           7.179e-04             254.986           1.523e+01     
-173.000         -90.000            4.323e-03           3.336e-03             103.233           9.867e-04             251.928           4.356e+00     
-172.000         -90.000            2.064e-03           8.116e-04             169.203           1.252e-03             246.888           1.360e+00     
-171.000         -90.000            5.386e-03           3.898e-03             227.716           1.488e-03             240.005           1.041e+01     
-170.000         -90.000            1.272e-02           1.104e-02             239.891           1.681e-03             231.336           1.980e+01     
-169.000         -90.000            2.017e-02           1.833e-02             244.821           1.841e-03             220.958           8.465e+00     
-168.000         -90.000            2.370e-02           2.170e-02             248.224           1.994e-03             209.108           5.529e+00     
-167.000         -90.000            2.149e-02           1.931e-02             252.062           2.175e-03             196.245           3.741e+00     
-166.000         -90.000            1.498e-02           1.257e-02             258.574           2.407e-03             183.015           2.394e+00     
-165.000         -90.000            8.122e-03           5.430e-03             274.296           2.692e-03             170.060           1.544e+00     
-164.000         -90.000            5.200e-03           2.200e-03             322.854           3.000e-03             157.818           7.709e+00     
-163.000         -90.000            8.447e-03           5.174e-03              15.566           3.273e-03             146.451           2.276e+00     
