Theta [deg.]  Phi   [deg.]  Abs(Dir.)[      ]   Abs(Theta)[      ]  Phase(Theta)[deg.]  Abs(Phi  )[      ]  Phase(Phi  )[deg.]  Ax.Ratio[      ]    
------------------------------------------------------------------------------------------------------------------------------------------------------
-180.000         -90.000            1.357e-03           5.563e-08              17.220           1.357e-03             299.074           1.596e+02     
-179.000         -90.000            4.734e-03           3.382e-03             332.299           1.352e-03             297.616           3.614e+00     
-178.000         -90.000            1.403e-02           1.268e-02             332.324           1.345e-03             293.259           5.197e+00     
-177.000         -90.000            2.703e-02           2.567e-02             332.468           1.361e-03             286.189           6.166e+00     
-176.000         -90.000            4.066e-02           3.922e-02             332.727           1.435e-03             276.927           6.396e+00     
-175.000         -90.000            5.170e-02           5.010e-02             333.138           1.607e-03             266.414           6.110e+00     
-174.000         -90.000            5.759e-02           5.568e-02             333.774           1.909e-03             255.770           5.529e+00     
-173.000         -90.000            5.701e-02           5.464e-02             334.764           2.364e-03             245.843           4.809e+00     
-172.000         -90.000            5.024e-02           4.726e-02             336.348           2.974e-03             236.995           4.047e+00     
-171.000         -90.000            3.909e-02           3.536e-02             339.022           3.723e-03             229.188           3.320e+00     
-170.000         -90.000            2.649e-02           2.192e-02             343.996           4.574e-03             222.209           2.749e+00     
-169.000         -90.000            1.583e-02           1.035e-02             354.945           5.480e-03             215.801           2.864e+00     
-168.000         -90.000            1.013e-02           3.742e-03              25.757           6.386e-03             209.728           2.988e+01     
-167.000         -90.000            1.136e-02           4.117e-03              84.441           7.238e-03             203.796           1.844e+00     
-166.000         -90.000            1.995e-02           1.196e-02             112.934           7.994e-03             197.846           1.246e+00     
-165.000         -90.000            3.469e-02           2.607e-02             123.373           8.624e-03             191.757           1.985e+00     
-164.000         -90.000            5.296e-02           4.384e-02             128.426           9.119e-03             185.436           2.801e+00     
-163.000         -90.000            7.127e-02           6.178e-02             131.474           9.486e-03             178.818           3.735e+00     
