Theta [deg.]  Phi   [deg.]  Abs(Dir.)[      ]   Abs(Theta)[      ]  Phase(Theta)[deg.]  Abs(Phi  )[      ]  Phase(Phi  )[deg.]  Ax.Ratio[      ]    
------------------------------------------------------------------------------------------------------------------------------------------------------
-180.000         -90.000            3.873e-02           2.231e-07             332.140           3.873e-02              45.568           3.162e+02     
-179.000         -90.000            4.203e-02           3.804e-03             319.077           3.822e-02              45.084           3.179e+00     
-178.000         -90.000            5.094e-02           1.416e-02             319.197           3.678e-02              43.606           1.629e+00     
-177.000         -90.000            6.307e-02           2.853e-02             319.419           3.455e-02              41.080           1.191e+00     
-176.000         -90.000            7.512e-02           4.336e-02             319.771           3.175e-02              37.421           1.307e+00     
-175.000         -90.000            8.372e-02           5.503e-02             320.301           2.869e-02              32.519           1.580e+00     
-174.000         -90.000            8.637e-02           6.071e-02             321.090           2.566e-02              26.259           1.879e+00     
-173.000         -90.000            8.201e-02           5.905e-02             322.279           2.295e-02              18.560           2.229e+00     
-172.000         -90.000            7.137e-02           5.055e-02             324.130           2.083e-02               9.453           2.727e+00     
-171.000         -90.000            5.685e-02           3.738e-02             327.197           1.947e-02             359.155           3.712e+00     
-170.000         -90.000            4.185e-02           2.289e-02             332.768           1.896e-02             348.112           7.458e+00     
-169.000         -90.000            3.007e-02           1.076e-02             344.788           1.932e-02             336.907           1.515e+01     
-168.000         -90.000            2.456e-02           4.106e-03              17.070           2.045e-02             326.089           3.129e+00     
-167.000         -90.000            2.697e-02           4.771e-03              72.898           2.219e-02             316.015           2.545e+00     
-166.000         -90.000            3.718e-02           1.285e-02             100.450           2.433e-02             306.815           4.514e+00     
-165.000         -90.000            5.330e-02           2.668e-02             111.297           2.662e-02             298.451           1.600e+01     
-164.000         -90.000            7.211e-02           4.330e-02             116.939           2.881e-02             290.801           1.904e+01     
-163.000         -90.000            8.978e-02           5.910e-02             120.669           3.068e-02             283.718           7.091e+00     
