Theta [deg.]  Phi   [deg.]  Abs(Dir.)[      ]   Abs(Theta)[      ]  Phase(Theta)[deg.]  Abs(Phi  )[      ]  Phase(Phi  )[deg.]  Ax.Ratio[      ]    
------------------------------------------------------------------------------------------------------------------------------------------------------
-180.000         -90.000            1.837e-03           2.340e-09             140.318           1.837e-03             245.563           3.162e+02     
-179.000         -90.000            5.048e-03           3.239e-03             338.008           1.809e-03             245.343           1.343e+00     
-178.000         -90.000            1.401e-02           1.228e-02             338.129           1.727e-03             244.681           2.673e+00     
-177.000         -90.000            2.682e-02           2.523e-02             338.334           1.598e-03             243.539           3.990e+00     
-176.000         -90.000            4.077e-02           3.934e-02             338.653           1.430e-03             241.850           5.285e+00     
-175.000         -90.000            5.292e-02           5.168e-02             339.128           1.236e-03             239.501           6.562e+00     
-174.000         -90.000            6.071e-02           5.968e-02             339.824           1.031e-03             236.320           7.831e+00     
-173.000         -90.000            6.256e-02           6.173e-02             340.848           8.284e-04             232.036           9.132e+00     
-172.000         -90.000            5.814e-02           5.750e-02             342.379           6.420e-04             226.237           1.057e+01     
-171.000         -90.000            4.847e-02           4.798e-02             344.747           4.833e-04             218.324           1.243e+01     
-170.000         -90.000            3.567e-02           3.531e-02             348.607           3.616e-04             207.534           1.582e+01     
-169.000         -90.000            2.256e-02           2.228e-02             355.432           2.831e-04             193.312           2.923e+01     
-168.000         -90.000            1.200e-02           1.175e-02               8.995           2.502e-04             176.293           3.179e+01     
-167.000         -90.000            6.315e-03           6.053e-03              38.077           2.622e-04             158.974           5.666e+00     
-166.000         -90.000            6.843e-03           6.529e-03              80.200           3.150e-04             144.118           5.118e+00     
-165.000         -90.000            1.362e-02           1.322e-02             106.725           4.022e-04             132.752           1.339e+01     
-164.000         -90.000            2.542e-02           2.491e-02             119.245           5.157e-04             124.473           7.784e+01     
-163.000         -90.000            3.999e-02           3.934e-02             125.915           6.460e-04             118.522           6.163e+01     
