Theta [deg.]  Phi   [deg.]  Abs(Dir.)[      ]   Abs(Theta)[      ]  Phase(Theta)[deg.]  Abs(Phi  )[      ]  Phase(Phi  )[deg.]  Ax.Ratio[      ]    
------------------------------------------------------------------------------------------------------------------------------------------------------
-180.000         -90.000            4.147e-03           2.521e-08             187.901           4.147e-03             206.548           3.162e+02     
-179.000         -90.000            1.062e-02           6.512e-03             200.598           4.103e-03             206.549           1.976e+01     
-178.000         -90.000            2.586e-02           2.189e-02             200.971           3.974e-03             206.505           2.872e+01     
-177.000         -90.000            4.020e-02           3.642e-02             201.700           3.778e-03             206.258           4.310e+01     
-176.000         -90.000            4.450e-02           4.097e-02             203.075           3.536e-03             205.560           8.529e+01     
-175.000         -90.000            3.602e-02           3.275e-02             205.825           3.273e-03             204.086           1.146e+02     
-174.000         -90.000            2.020e-02           1.720e-02             212.271           3.006e-03             201.493           1.496e+01     
-173.000         -90.000            7.241e-03           4.489e-03             235.172           2.752e-03             197.458           3.039e+00     
-172.000         -90.000            5.731e-03           3.204e-03             320.025           2.527e-03             191.757           2.086e+00     
-171.000         -90.000            1.725e-02           1.491e-02             352.175           2.341e-03             184.325           1.380e+01     
-170.000         -90.000            3.531e-02           3.311e-02               0.719           2.201e-03             175.287           4.367e+01     
-169.000         -90.000            4.935e-02           4.725e-02               5.092           2.104e-03             164.920           1.428e+01     
-168.000         -90.000            5.117e-02           4.913e-02               8.850           2.041e-03             153.555           8.730e+00     
-167.000         -90.000            3.992e-02           3.792e-02              13.934           1.996e-03             141.464           5.608e+00     
-166.000         -90.000            2.252e-02           2.056e-02              23.812           1.954e-03             128.806           3.382e+00     
-165.000         -90.000            9.353e-03           7.446e-03              50.769           1.907e-03             115.665           2.308e+00     
-164.000         -90.000            7.980e-03           6.129e-03             111.729           1.851e-03             102.115           1.412e+01     
-163.000         -90.000            1.863e-02           1.684e-02             145.409           1.785e-03              88.283           3.781e+00     
