Theta [deg.]  Phi   [deg.]  Abs(Dir.)[      ]   Abs(Theta)[      ]  Phase(Theta)[deg.]  Abs(Phi  )[      ]  Phase(Phi  )[deg.]  Ax.Ratio[      ]    
------------------------------------------------------------------------------------------------------------------------------------------------------
-180.000         -90.000            1.384e-02           1.031e-08             341.265           1.384e-02             221.814           3.162e+02     
-179.000         -90.000            1.838e-02           4.593e-03             275.660           1.379e-02             221.683           2.447e+00     
-178.000         -90.000            3.116e-02           1.751e-02             275.711           1.365e-02             221.289           1.971e+00     
-177.000         -90.000            4.977e-02           3.636e-02             275.839           1.341e-02             220.633           2.312e+00     
-176.000         -90.000            7.072e-02           5.763e-02             276.048           1.309e-02             219.716           2.727e+00     
-175.000         -90.000            9.009e-02           7.741e-02             276.362           1.268e-02             218.541           3.072e+00     
-174.000         -90.000            1.043e-01           9.205e-02             276.821           1.220e-02             217.110           3.300e+00     
-173.000         -90.000            1.105e-01           9.889e-02             277.488           1.165e-02             215.422           3.391e+00     
-172.000         -90.000            1.078e-01           9.673e-02             278.468           1.104e-02             213.478           3.340e+00     
-171.000         -90.000            9.645e-02           8.607e-02             279.936           1.038e-02             211.275           3.146e+00     
-170.000         -90.000            7.867e-02           6.898e-02             282.222           9.692e-03             208.807           2.820e+00     
-169.000         -90.000            5.772e-02           4.875e-02             285.995           8.977e-03             206.065           2.383e+00     
-168.000         -90.000            3.752e-02           2.927e-02             292.837           8.252e-03             203.035           1.883e+00     
-167.000         -90.000            2.185e-02           1.432e-02             307.122           7.530e-03             199.700           1.567e+00     
-166.000         -90.000            1.374e-02           6.914e-03             340.104           6.826e-03             196.038           3.084e+00     
-165.000         -90.000            1.487e-02           8.717e-03              25.895           6.152e-03             192.022           8.349e+00     
-164.000         -90.000            2.532e-02           1.980e-02              50.640           5.520e-03             187.625           3.242e+00     
-163.000         -90.000            4.356e-02           3.862e-02              61.622           4.941e-03             182.821           3.392e+00     
