Theta [deg.]  Phi   [deg.]  Abs(Dir.)[      ]   Abs(Theta)[      ]  Phase(Theta)[deg.]  Abs(Phi  )[      ]  Phase(Phi  )[deg.]  Ax.Ratio[      ]    
------------------------------------------------------------------------------------------------------------------------------------------------------
-180.000         -90.000            8.106e-04           1.814e-09             206.223           8.106e-04             308.904           3.162e+02     
-179.000         -90.000            4.445e-03           3.649e-03             135.330           7.955e-04             308.243           2.110e+01     
-178.000         -90.000            1.447e-02           1.372e-02             135.439           7.525e-04             306.200           2.802e+01     
-177.000         -90.000            2.850e-02           2.781e-02             135.667           6.884e-04             302.635           2.885e+01     
-176.000         -90.000            4.319e-02           4.257e-02             136.035           6.138e-04             297.328           2.630e+01     
-175.000         -90.000            5.506e-02           5.452e-02             136.597           5.410e-04             290.025           2.262e+01     
-174.000         -90.000            6.137e-02           6.089e-02             137.438           4.828e-04             280.586           1.882e+01     
-173.000         -90.000            6.071e-02           6.026e-02             138.709           4.502e-04             269.235           1.527e+01     
-172.000         -90.000            5.338e-02           5.293e-02             140.675           4.515e-04             256.798           1.208e+01     
-171.000         -90.000            4.128e-02           4.079e-02             143.869           4.904e-04             244.497           9.283e+00     
-170.000         -90.000            2.742e-02           2.686e-02             149.454           5.665e-04             233.418           6.926e+00     
-169.000         -90.000            1.522e-02           1.455e-02             160.415           6.747e-04             224.058           5.231e+00     
-168.000         -90.000            7.650e-03           6.844e-03             184.861           8.065e-04             216.401           6.060e+00     
-167.000         -90.000            6.554e-03           5.603e-03             228.661           9.508e-04             210.200           8.854e+00     
-166.000         -90.000            1.222e-02           1.112e-02             260.999           1.096e-03             205.164           3.978e+00     
-165.000         -90.000            2.333e-02           2.210e-02             275.699           1.229e-03             201.052           4.415e+00     
-164.000         -90.000            3.730e-02           3.596e-02             283.095           1.341e-03             197.678           5.196e+00     
-163.000         -90.000            5.093e-02           4.950e-02             287.581           1.424e-03             194.926           5.903e+00     
