Theta [deg.]  Phi   [deg.]  Abs(Dir.)[      ]   Abs(Theta)[      ]  Phase(Theta)[deg.]  Abs(Phi  )[      ]  Phase(Phi  )[deg.]  Ax.Ratio[      ]    
------------------------------------------------------------------------------------------------------------------------------------------------------
-180.000         -90.000            5.756e-03           1.076e-07             276.684           5.756e-03             307.490           3.162e+02     
-179.000         -90.000            8.306e-03           2.578e-03             101.687           5.727e-03             306.851           4.878e+00     
-178.000         -90.000            1.471e-02           9.067e-03             101.932           5.647e-03             304.972           5.056e+00     
-177.000         -90.000            2.168e-02           1.617e-02             102.443           5.518e-03             301.918           6.738e+00     
-176.000         -90.000            2.561e-02           2.027e-02             103.359           5.340e-03             297.790           9.775e+00     
-175.000         -90.000            2.441e-02           1.930e-02             105.005           5.111e-03             292.699           1.830e+01     
-174.000         -90.000            1.862e-02           1.380e-02             108.210           4.827e-03             286.750           8.955e+01     
-173.000         -90.000            1.113e-02           6.645e-03             115.751           4.482e-03             280.010           7.380e+00     
-172.000         -90.000            5.732e-03           1.657e-03             143.011           4.075e-03             272.489           2.449e+00     
-171.000         -90.000            5.263e-03           1.651e-03             225.718           3.612e-03             264.121           3.152e+00     
-170.000         -90.000            1.015e-02           7.038e-03             253.957           3.114e-03             254.752           1.564e+02     
-169.000         -90.000            1.820e-02           1.559e-02             262.200           2.611e-03             244.143           9.095e+00     
-168.000         -90.000            2.566e-02           2.352e-02             266.470           2.137e-03             231.978           6.230e+00     
-167.000         -90.000            2.902e-02           2.729e-02             269.889           1.729e-03             217.941           5.172e+00     
-166.000         -90.000            2.674e-02           2.533e-02             273.865           1.410e-03             201.832           4.481e+00     
-165.000         -90.000            1.994e-02           1.875e-02             280.005           1.190e-03             183.786           3.995e+00     
-164.000         -90.000            1.184e-02           1.078e-02             291.785           1.064e-03             164.380           4.162e+00     
-163.000         -90.000            6.273e-03           5.259e-03             318.270           1.015e-03             144.452           2.518e+01     
