Theta [deg.]  Phi   [deg.]  Abs(Dir.)[      ]   Abs(Theta)[      ]  Phase(Theta)[deg.]  Abs(Phi  )[      ]  Phase(Phi  )[deg.]  Ax.Ratio[      ]    
------------------------------------------------------------------------------------------------------------------------------------------------------
-180.000         -90.000            1.376e-02           4.458e-07             226.322           1.376e-02              76.259           3.162e+02     
-179.000         -90.000            2.020e-02           7.120e-03              47.287           1.308e-02              75.636           4.168e+00     
-178.000         -90.000            3.575e-02           2.446e-02              47.267           1.129e-02              73.855           4.589e+00     
-177.000         -90.000            5.053e-02           4.173e-02              47.257           8.804e-03              70.551           6.513e+00     
-176.000         -90.000            5.490e-02           4.871e-02              47.295           6.189e-03              64.955           1.033e+01     
-175.000         -90.000            4.525e-02           4.130e-02              47.471           3.957e-03              55.620           2.494e+01     
-174.000         -90.000            2.634e-02           2.389e-02              48.048           2.446e-03              40.358           2.571e+01     
-173.000         -90.000            8.532e-03           6.786e-03              50.337           1.746e-03              18.450           4.469e+00     
-172.000         -90.000            1.771e-03           6.288e-05             156.671           1.708e-03             355.741           1.648e+01     
-171.000         -90.000            9.777e-03           7.734e-03             220.266           2.042e-03             339.648           2.408e+00     
-170.000         -90.000            2.791e-02           2.548e-02             222.551           2.432e-03             330.889           3.445e+00     
-169.000         -90.000            4.590e-02           4.325e-02             223.570           2.648e-03             327.541           4.181e+00     
-168.000         -90.000            5.373e-02           5.112e-02             224.661           2.607e-03             328.371           4.572e+00     
-167.000         -90.000            4.728e-02           4.491e-02             226.512           2.368e-03             333.032           4.563e+00     
-166.000         -90.000            3.051e-02           2.843e-02             230.423           2.078e-03             341.550           4.006e+00     
-165.000         -90.000            1.295e-02           1.107e-02             241.094           1.889e-03             353.377           2.691e+00     
-164.000         -90.000            4.271e-03           2.380e-03             288.732           1.891e-03               6.499           1.277e+00     
-163.000         -90.000            8.828e-03           6.752e-03               0.888           2.076e-03              18.107           7.838e+00     
