Theta [deg.]  Phi   [deg.]  Abs(Dir.)[      ]   Abs(Theta)[      ]  Phase(Theta)[deg.]  Abs(Phi  )[      ]  Phase(Phi  )[deg.]  Ax.Ratio[      ]    
------------------------------------------------------------------------------------------------------------------------------------------------------
-180.000         -90.000            1.386e-02           7.800e-07             247.336           1.386e-02              28.676           2.134e+02     
-179.000         -90.000            2.578e-02           1.179e-02              52.248           1.399e-02              25.107           4.160e+00     
-178.000         -90.000            5.084e-02           3.620e-02              52.361           1.464e-02              15.586           3.394e+00     
-177.000         -90.000            6.687e-02           4.997e-02              52.549           1.690e-02               2.544           2.622e+00     
-176.000         -90.000            6.172e-02           4.009e-02              53.054           2.163e-02             349.592           1.781e+00     
-175.000         -90.000            4.473e-02           1.605e-02              54.796           2.867e-02             339.098           1.472e+00     
-174.000         -90.000            3.714e-02           5.589e-04              75.766           3.658e-02             331.364           8.360e+00     
-173.000         -90.000            5.095e-02           7.869e-03             223.713           4.308e-02             325.760           2.415e+00     
-172.000         -90.000            7.660e-02           3.056e-02             227.368           4.604e-02             321.574           1.243e+00     
-171.000         -90.000            9.144e-02           4.706e-02             229.039           4.438e-02             318.223           1.033e+00     
-170.000         -90.000            8.068e-02           4.218e-02             231.402           3.850e-02             315.208           1.125e+00     
-169.000         -90.000            5.108e-02           2.108e-02             237.331           3.000e-02             311.994           1.383e+00     
-168.000         -90.000            2.473e-02           3.696e-03             265.726           2.103e-02             307.821           3.929e+00     
-167.000         -90.000            1.909e-02           5.696e-03               6.176           1.339e-02             301.438           1.887e+00     
-166.000         -90.000            3.224e-02           2.413e-02              25.944           8.112e-03             290.855           1.738e+00     
-165.000         -90.000            4.629e-02           4.093e-02              31.921           5.355e-03             274.303           3.218e+00     
-164.000         -90.000            4.502e-02           4.030e-02              36.660           4.722e-03             254.479           5.128e+00     
-163.000         -90.000            2.894e-02           2.335e-02              45.075           5.590e-03             238.466           1.084e+01     
