Theta [deg.]  Phi   [deg.]  Abs(Dir.)[      ]   Abs(Theta)[      ]  Phase(Theta)[deg.]  Abs(Phi  )[      ]  Phase(Phi  )[deg.]  Ax.Ratio[      ]    
------------------------------------------------------------------------------------------------------------------------------------------------------
-180.000         -90.000            1.600e-02           2.031e-07              43.992           1.600e-02             208.769           3.162e+02     
-179.000         -90.000            2.003e-02           4.545e-03             354.034           1.549e-02             207.827           4.046e+00     
-178.000         -90.000            3.031e-02           1.621e-02             354.071           1.410e-02             205.113           3.611e+00     
-177.000         -90.000            4.225e-02           3.013e-02             354.369           1.212e-02             200.340           4.843e+00     
-176.000         -90.000            5.045e-02           4.051e-02             354.940           9.943e-03             193.024           7.973e+00     
-175.000         -90.000            5.100e-02           4.300e-02             355.932           7.997e-03             182.570           2.375e+01     
-174.000         -90.000            4.324e-02           3.661e-02             357.699           6.632e-03             168.689           1.766e+01     
-173.000         -90.000            3.012e-02           2.407e-02               1.155           6.055e-03             152.227           4.957e+00     
-172.000         -90.000            1.706e-02           1.077e-02               9.455           6.291e-03             135.464           2.082e+00     
-171.000         -90.000            9.755e-03           2.559e-03              40.653           7.196e-03             120.658           1.730e+00     
-170.000         -90.000            1.184e-02           3.350e-03             121.524           8.490e-03             108.616           9.837e+00     
-169.000         -90.000            2.331e-02           1.348e-02             146.321           9.831e-03              99.000           2.324e+00     
-168.000         -90.000            4.041e-02           2.953e-02             153.692           1.089e-02              91.146           2.053e+00     
-167.000         -90.000            5.703e-02           4.563e-02             157.190           1.140e-02              84.469           2.154e+00     
-166.000         -90.000            6.701e-02           5.577e-02             159.479           1.124e-02              78.524           2.270e+00     
-165.000         -90.000            6.649e-02           5.610e-02             161.538           1.039e-02              72.980           2.324e+00     
-164.000         -90.000            5.545e-02           4.647e-02             164.084           8.982e-03              67.563           2.296e+00     
-163.000         -90.000            3.773e-02           3.052e-02             168.244           7.208e-03              61.998           2.194e+00     
