Theta [deg.]  Phi   [deg.]  Abs(Dir.)[      ]   Abs(Theta)[      ]  Phase(Theta)[deg.]  Abs(Phi  )[      ]  Phase(Phi  )[deg.]  Ax.Ratio[      ]    
------------------------------------------------------------------------------------------------------------------------------------------------------
-180.000         -90.000            6.984e-02           9.710e-07             326.370           6.984e-02             138.092           3.162e+02     
-179.000         -90.000            7.278e-02           4.590e-03              93.354           6.819e-02             137.636           5.717e+00     
-178.000         -90.000            8.078e-02           1.726e-02              93.639           6.353e-02             136.305           3.297e+00     
-177.000         -90.000            9.101e-02           3.453e-02              93.671           5.647e-02             133.979           2.833e+00     
-176.000         -90.000            9.963e-02           5.171e-02              93.619           4.792e-02             130.440           3.007e+00     
-175.000         -90.000            1.030e-01           6.412e-02              93.522           3.893e-02             125.342           3.637e+00     
-174.000         -90.000            9.898e-02           6.844e-02              93.401           3.054e-02             118.188           4.962e+00     
-173.000         -90.000            8.719e-02           6.354e-02              93.277           2.365e-02             108.398           8.505e+00     
-172.000         -90.000            6.969e-02           5.082e-02              93.184           1.887e-02              95.610           5.316e+01     
-171.000         -90.000            5.018e-02           3.374e-02              93.191           1.644e-02              80.376           9.501e+00     
-170.000         -90.000            3.314e-02           1.686e-02              93.487           1.628e-02              64.588           3.881e+00     
-169.000         -90.000            2.256e-02           4.595e-03              94.978           1.796e-02              50.443           3.231e+00     
-168.000         -90.000            2.087e-02           2.189e-05             160.516           2.084e-02              38.999           3.621e+01     
-167.000         -90.000            2.825e-02           4.074e-03             266.801           2.418e-02              30.129           3.083e+00     
-166.000         -90.000            4.259e-02           1.535e-02             268.503           2.724e-02              23.252           1.708e+00     
-165.000         -90.000            5.996e-02           3.055e-02             268.964           2.940e-02              17.795           1.398e+00     
-164.000         -90.000            7.570e-02           4.543e-02             269.220           3.027e-02              13.313           1.380e+00     
-163.000         -90.000            8.559e-02           5.592e-02             269.535           2.968e-02               9.480           1.438e+00     
