Theta [deg.]  Phi   [deg.]  Abs(Dir.)[      ]   Abs(Theta)[      ]  Phase(Theta)[deg.]  Abs(Phi  )[      ]  Phase(Phi  )[deg.]  Ax.Ratio[      ]    
------------------------------------------------------------------------------------------------------------------------------------------------------
-180.000         -90.000            6.360e-03           1.971e-07              22.944           6.360e-03             228.737           3.162e+02     
-179.000         -90.000            1.141e-02           5.393e-03              88.743           6.018e-03             227.736           2.679e+00     
-178.000         -90.000            2.412e-02           1.901e-02              89.155           5.114e-03             224.859           3.190e+00     
-177.000         -90.000            3.839e-02           3.451e-02              89.688           3.877e-03             219.390           4.068e+00     
-176.000         -90.000            4.738e-02           4.476e-02              90.541           2.620e-03             209.709           4.802e+00     
-175.000         -90.000            4.678e-02           4.513e-02              91.971           1.657e-03             192.709           5.319e+00     
-174.000         -90.000            3.689e-02           3.567e-02              94.535           1.226e-03             165.749           5.719e+00     
-173.000         -90.000            2.239e-02           2.096e-02              99.760           1.428e-03             136.170           6.746e+00     
-172.000         -90.000            1.009e-02           7.881e-03             113.498           2.206e-03             115.089           8.709e+01     
-171.000         -90.000            5.653e-03           2.296e-03             165.340           3.357e-03             102.142           1.689e+00     
-170.000         -90.000            1.092e-02           6.340e-03             225.355           4.585e-03              93.767           2.268e+00     
-169.000         -90.000            2.309e-02           1.751e-02             241.805           5.578e-03              87.801           5.135e+00     
-168.000         -90.000            3.606e-02           2.997e-02             248.169           6.085e-03              83.155           1.023e+01     
-167.000         -90.000            4.342e-02           3.745e-02             251.899           5.972e-03              79.257           2.263e+01     
-166.000         -90.000            4.146e-02           3.621e-02             255.130           5.256e-03              75.779           2.654e+02     
-165.000         -90.000            3.096e-02           2.687e-02             259.334           4.091e-03              72.504           2.479e+01     
-164.000         -90.000            1.681e-02           1.408e-02             267.396           2.731e-03              69.232           8.580e+00     
-163.000         -90.000            5.836e-03           4.380e-03             291.519           1.456e-03              65.642           2.871e+00     
