Theta [deg.]  Phi   [deg.]  Abs(Dir.)[      ]   Abs(Theta)[      ]  Phase(Theta)[deg.]  Abs(Phi  )[      ]  Phase(Phi  )[deg.]  Ax.Ratio[      ]    
------------------------------------------------------------------------------------------------------------------------------------------------------
-180.000         -90.000            3.759e-02           1.595e-06              51.225           3.759e-02             105.775           1.885e+02     
-179.000         -90.000            4.051e-02           3.659e-03             222.850           3.685e-02             105.170           3.667e+00     
-178.000         -90.000            4.866e-02           1.371e-02             223.030           3.495e-02             103.433           2.074e+00     
-177.000         -90.000            5.896e-02           2.683e-02             223.232           3.213e-02             100.489           1.846e+00     
-176.000         -90.000            6.743e-02           3.868e-02             223.535           2.875e-02              96.224           2.056e+00     
-175.000         -90.000            7.056e-02           4.533e-02             224.013           2.522e-02              90.500           2.473e+00     
-174.000         -90.000            6.654e-02           4.461e-02             224.793           2.193e-02              83.201           3.102e+00     
-173.000         -90.000            5.596e-02           3.675e-02             226.135           1.921e-02              74.320           4.222e+00     
-172.000         -90.000            4.162e-02           2.437e-02             228.664           1.725e-02              64.070           7.508e+00     
-171.000         -90.000            2.778e-02           1.166e-02             234.365           1.613e-02              52.948           8.192e+01     
-170.000         -90.000            1.874e-02           2.972e-03             253.696           1.577e-02              41.642           4.956e+00     
-169.000         -90.000            1.748e-02           1.484e-03             338.988           1.600e-02              30.806           4.334e+00     
-168.000         -90.000            2.470e-02           8.142e-03              15.947           1.656e-02              20.845           2.487e+01     
-167.000         -90.000            3.854e-02           2.136e-02              24.522           1.719e-02              11.878           9.080e+00     
-166.000         -90.000            5.509e-02           3.748e-02              28.156           1.761e-02               3.823           5.004e+00     
-165.000         -90.000            6.955e-02           5.190e-02              30.323           1.765e-02             356.505           3.870e+00     
-164.000         -90.000            7.765e-02           6.047e-02              32.048           1.718e-02             349.723           3.272e+00     
-163.000         -90.000            7.693e-02           6.076e-02              33.858           1.617e-02             343.284           2.823e+00     
