Theta [deg.]  Phi   [deg.]  Abs(Dir.)[      ]   Abs(Theta)[      ]  Phase(Theta)[deg.]  Abs(Phi  )[      ]  Phase(Phi  )[deg.]  Ax.Ratio[      ]    
------------------------------------------------------------------------------------------------------------------------------------------------------
-180.000         -90.000            6.157e-03           1.503e-06             168.294           6.155e-03             244.995           6.575e+01     
-179.000         -90.000            1.127e-02           5.435e-03             314.448           5.831e-03             244.146           1.423e+00     
-178.000         -90.000            2.375e-02           1.871e-02             314.861           5.035e-03             241.484           2.070e+00     
-177.000         -90.000            3.575e-02           3.178e-02             315.262           3.969e-03             236.568           2.902e+00     
-176.000         -90.000            3.960e-02           3.672e-02             315.923           2.881e-03             228.573           3.574e+00     
-175.000         -90.000            3.251e-02           3.052e-02             317.220           1.994e-03             216.309           3.994e+00     
-174.000         -90.000            1.838e-02           1.694e-02             320.280           1.436e-03             198.997           4.117e+00     
-173.000         -90.000            5.600e-03           4.385e-03             331.283           1.214e-03             178.491           5.112e+00     
-172.000         -90.000            2.095e-03           8.599e-04              72.704           1.235e-03             159.547           1.208e+00     
-171.000         -90.000            1.061e-02           9.264e-03             114.849           1.350e-03             145.243           5.759e+00     
-170.000         -90.000            2.698e-02           2.557e-02             120.970           1.415e-03             135.458           1.788e+01     
-169.000         -90.000            4.239e-02           4.104e-02             123.267           1.344e-03             129.174           5.544e+01     
-168.000         -90.000            4.832e-02           4.719e-02             124.666           1.125e-03             125.830           3.162e+02     
-167.000         -90.000            4.141e-02           4.059e-02             126.135           8.137e-04             125.738           3.162e+02     
-166.000         -90.000            2.535e-02           2.485e-02             128.723           5.023e-04             130.686           2.095e+02     
-165.000         -90.000            8.879e-03           8.599e-03             135.995           2.802e-04             145.140           3.597e+01     
-164.000         -90.000            1.016e-03           8.133e-04             190.281           2.027e-04             172.807           8.212e+00     
-163.000         -90.000            6.186e-03           5.910e-03             279.025           2.766e-04             199.247           4.704e+00     
