Theta [deg.]  Phi   [deg.]  Abs(Dir.)[      ]   Abs(Theta)[      ]  Phase(Theta)[deg.]  Abs(Phi  )[      ]  Phase(Phi  )[deg.]  Ax.Ratio[      ]    
------------------------------------------------------------------------------------------------------------------------------------------------------
-180.000         -90.000            1.158e-02           4.668e-07              70.515           1.158e-02             162.735           1.576e+02     
-179.000         -90.000            1.812e-02           6.347e-03             270.506           1.177e-02             161.121           1.595e+00     
-178.000         -90.000            3.267e-02           2.036e-02             270.634           1.231e-02             156.434           1.660e+00     
-177.000         -90.000            4.389e-02           3.053e-02             271.074           1.335e-02             149.510           2.067e+00     
-176.000         -90.000            4.352e-02           2.850e-02             272.077           1.502e-02             141.502           2.343e+00     
-175.000         -90.000            3.315e-02           1.592e-02             274.645           1.723e-02             133.460           2.841e+00     
-174.000         -90.000            2.292e-02           3.240e-03             285.547           1.968e-02             126.001           8.089e+00     
-173.000         -90.000            2.310e-02           1.271e-03              55.151           2.183e-02             119.296           4.659e+00     
-172.000         -90.000            3.558e-02           1.246e-02              77.517           2.312e-02             113.233           3.287e+00     
-171.000         -90.000            5.188e-02           2.877e-02              81.618           2.311e-02             107.579           4.367e+00     
-170.000         -90.000            5.961e-02           3.795e-02              83.973           2.166e-02             102.060           6.544e+00     
-169.000         -90.000            5.207e-02           3.310e-02              86.768           1.898e-02              96.385           1.236e+01     
-168.000         -90.000            3.357e-02           1.806e-02              92.424           1.552e-02              90.232           5.243e+01     
-167.000         -90.000            1.627e-02           4.411e-03             112.599           1.186e-02              83.216           4.355e+00     
-166.000         -90.000            1.114e-02           2.605e-03             206.253           8.537e-03              74.859           2.791e+00     
-165.000         -90.000            1.994e-02           1.405e-02             238.601           5.884e-03              64.594           2.095e+01     
-164.000         -90.000            3.429e-02           3.027e-02             246.807           4.026e-03              51.936           1.202e+01     
-163.000         -90.000            4.235e-02           3.945e-02             251.807           2.899e-03              37.011           6.793e+00     
