Theta [deg.]  Phi   [deg.]  Abs(Dir.)[      ]   Abs(Theta)[      ]  Phase(Theta)[deg.]  Abs(Phi  )[      ]  Phase(Phi  )[deg.]  Ax.Ratio[      ]    
------------------------------------------------------------------------------------------------------------------------------------------------------
-180.000         -90.000            3.965e-03           1.369e-07             184.259           3.965e-03             304.554           1.971e+02     
-179.000         -90.000            8.295e-03           4.410e-03               6.256           3.885e-03             303.097           1.634e+00     
-178.000         -90.000            1.939e-02           1.571e-02               6.255           3.678e-03             298.700           2.331e+00     
-177.000         -90.000            3.219e-02           2.875e-02               6.276           3.441e-03             291.301           3.020e+00     
-176.000         -90.000            4.085e-02           3.755e-02               6.344           3.296e-03             281.148           3.390e+00     
-175.000         -90.000            4.146e-02           3.810e-02               6.511           3.355e-03             269.171           3.403e+00     
-174.000         -90.000            3.383e-02           3.015e-02               6.897           3.679e-03             256.915           3.095e+00     
-173.000         -90.000            2.157e-02           1.732e-02               7.841           4.256e-03             245.781           2.577e+00     
-172.000         -90.000            1.048e-02           5.482e-03              10.868           4.997e-03             236.396           2.387e+00     
-171.000         -90.000            5.878e-03           1.245e-04              57.227           5.754e-03             228.709           4.686e+01     
-170.000         -90.000            1.023e-02           3.870e-03             175.760           6.359e-03             222.365           2.425e+00     
-169.000         -90.000            2.200e-02           1.533e-02             180.109           6.664e-03             216.966           3.327e+00     
-168.000         -90.000            3.630e-02           2.972e-02             181.736           6.574e-03             212.169           4.923e+00     
-167.000         -90.000            4.705e-02           4.098e-02             183.021           6.072e-03             207.672           7.009e+00     
-166.000         -90.000            4.963e-02           4.441e-02             184.629           5.219e-03             203.200           1.014e+01     
-165.000         -90.000            4.288e-02           3.874e-02             187.183           4.136e-03             198.458           1.727e+01     
-164.000         -90.000            2.957e-02           2.658e-02             191.907           2.982e-03             193.039           1.681e+02     
-163.000         -90.000            1.524e-02           1.333e-02             202.331           1.912e-03             186.251           1.081e+01     
