Theta [deg.]  Phi   [deg.]  Abs(Dir.)[      ]   Abs(Theta)[      ]  Phase(Theta)[deg.]  Abs(Phi  )[      ]  Phase(Phi  )[deg.]  Ax.Ratio[      ]    
------------------------------------------------------------------------------------------------------------------------------------------------------
-180.000         -90.000            5.332e-03           1.246e-07             271.206           5.332e-03              29.506           2.349e+02     
-179.000         -90.000            9.663e-03           4.431e-03              70.607           5.232e-03              28.247           2.593e+00     
-178.000         -90.000            2.085e-02           1.589e-02              70.657           4.966e-03              24.430           2.907e+00     
-177.000         -90.000            3.405e-02           2.941e-02              70.681           4.636e-03              17.977           3.368e+00     
-176.000         -90.000            4.354e-02           3.917e-02              70.727           4.377e-03               8.992           3.489e+00     
-175.000         -90.000            4.528e-02           4.096e-02              70.841           4.320e-03             358.058           3.257e+00     
-174.000         -90.000            3.859e-02           3.404e-02              71.110           4.549e-03             346.340           2.750e+00     
-173.000         -90.000            2.650e-02           2.142e-02              71.755           5.078e-03             335.150           2.076e+00     
-172.000         -90.000            1.436e-02           8.523e-03              73.588           5.836e-03             325.330           1.458e+00     
-171.000         -90.000            7.527e-03           8.390e-04              84.755           6.688e-03             317.082           3.748e+00     
-170.000         -90.000            9.059e-03           1.603e-03             237.016           7.456e-03             310.203           2.303e+00     
-169.000         -90.000            1.840e-02           1.043e-02             244.315           7.968e-03             304.356           1.762e+00     
-168.000         -90.000            3.165e-02           2.356e-02             246.248           8.091e-03             299.202           2.467e+00     
-167.000         -90.000            4.324e-02           3.548e-02             247.571           7.763e-03             294.438           3.264e+00     
-166.000         -90.000            4.828e-02           4.128e-02             249.104           7.002e-03             289.792           4.113e+00     
-165.000         -90.000            4.463e-02           3.872e-02             251.432           5.905e-03             284.986           5.145e+00     
-164.000         -90.000            3.375e-02           2.913e-02             255.529           4.620e-03             279.690           6.964e+00     
-163.000         -90.000            2.008e-02           1.677e-02             263.867           3.317e-03             273.425           1.616e+01     
