Theta [deg.]  Phi   [deg.]  Abs(Dir.)[      ]   Abs(Theta)[      ]  Phase(Theta)[deg.]  Abs(Phi  )[      ]  Phase(Phi  )[deg.]  Ax.Ratio[      ]    
------------------------------------------------------------------------------------------------------------------------------------------------------
-180.000         -90.000            1.052e-02           1.205e-06              65.643           1.052e-02             127.348           1.061e+02     
-179.000         -90.000            1.729e-02           6.044e-03               2.574           1.125e-02             126.227           2.026e+00     
-178.000         -90.000            3.202e-02           1.856e-02               2.427           1.345e-02             122.962           1.795e+00     
-177.000         -90.000            4.344e-02           2.621e-02               2.834           1.724e-02             118.539           1.670e+00     
-176.000         -90.000            4.454e-02           2.207e-02               4.087           2.247e-02             113.762           1.420e+00     
-175.000         -90.000            3.860e-02           9.983e-03               8.028           2.862e-02             108.988           1.757e+00     
-174.000         -90.000            3.567e-02           9.989e-04              35.245           3.467e-02             104.244           6.335e+00     
-173.000         -90.000            4.277e-02           3.395e-03             156.827           3.938e-02              99.405           4.149e+00     
-172.000         -90.000            5.677e-02           1.515e-02             167.473           4.162e-02              94.289           1.809e+00     
-171.000         -90.000            6.652e-02           2.572e-02             170.107           4.080e-02              88.686           1.318e+00     
-170.000         -90.000            6.261e-02           2.553e-02             171.576           3.708e-02              82.345           1.206e+00     
-169.000         -90.000            4.590e-02           1.461e-02             173.893           3.129e-02              74.951           1.512e+00     
-168.000         -90.000            2.749e-02           2.828e-03             184.281           2.466e-02              66.095           3.444e+00     
-167.000         -90.000            1.985e-02           1.414e-03             318.509           1.844e-02              55.285           3.641e+00     
-166.000         -90.000            2.668e-02           1.319e-02             336.515           1.349e-02              42.100           1.552e+00     
-165.000         -90.000            4.006e-02           2.988e-02             339.315           1.017e-02              26.667           2.761e+00     
-164.000         -90.000            4.712e-02           3.879e-02             340.612           8.328e-03              10.288           5.099e+00     
-163.000         -90.000            4.059e-02           3.308e-02             342.417           7.512e-03             355.209           1.154e+01     
