Theta [deg.]  Phi   [deg.]  Abs(Dir.)[      ]   Abs(Theta)[      ]  Phase(Theta)[deg.]  Abs(Phi  )[      ]  Phase(Phi  )[deg.]  Ax.Ratio[      ]    
------------------------------------------------------------------------------------------------------------------------------------------------------
-180.000         -90.000            1.352e-01           2.517e-07             266.146           1.352e-01              66.136           3.162e+02     
-179.000         -90.000            1.359e-01           2.785e-03             129.659           1.331e-01              65.846           7.735e+00     
-178.000         -90.000            1.374e-01           1.049e-02             129.488           1.269e-01              64.986           3.916e+00     
-177.000         -90.000            1.383e-01           2.112e-02             129.458           1.172e-01              63.517           2.670e+00     
-176.000         -90.000            1.368e-01           3.190e-02             129.491           1.049e-01              61.371           2.064e+00     
-175.000         -90.000            1.309e-01           4.003e-02             129.593           9.088e-02              58.446           1.708e+00     
-174.000         -90.000            1.197e-01           4.336e-02             129.797           7.637e-02              54.593           1.473e+00     
-173.000         -90.000            1.034e-01           4.103e-02             130.171           6.238e-02              49.613           1.307e+00     
-172.000         -90.000            8.341e-02           3.360e-02             130.852           4.981e-02              43.255           1.223e+00     
-171.000         -90.000            6.232e-02           2.302e-02             132.155           3.930e-02              35.244           1.342e+00     
-170.000         -90.000            4.328e-02           1.208e-02             134.975           3.120e-02              25.377           1.816e+00     
-169.000         -90.000            2.934e-02           3.733e-03             143.341           2.561e-02              13.707           3.620e+00     
-168.000         -90.000            2.270e-02           3.892e-04             206.431           2.231e-02               0.771           1.773e+01     
-167.000         -90.000            2.420e-02           3.263e-03             284.709           2.094e-02             347.574           2.951e+00     
-166.000         -90.000            3.305e-02           1.208e-02             294.549           2.097e-02             335.180           2.836e+00     
-165.000         -90.000            4.696e-02           2.513e-02             297.902           2.182e-02             324.249           4.284e+00     
-164.000         -90.000            6.262e-02           3.965e-02             299.710           2.297e-02             314.924           7.778e+00     
-163.000         -90.000            7.642e-02           5.247e-02             301.050           2.395e-02             307.039           2.061e+01     
