Theta [deg.]  Phi   [deg.]  Abs(Dir.)[      ]   Abs(Theta)[      ]  Phase(Theta)[deg.]  Abs(Phi  )[      ]  Phase(Phi  )[deg.]  Ax.Ratio[      ]    
------------------------------------------------------------------------------------------------------------------------------------------------------
-180.000         -90.000            1.061e-02           2.217e-06             243.876           1.061e-02             287.921           9.953e+01     
-179.000         -90.000            1.796e-02           6.413e-03             228.661           1.155e-02             287.492           1.918e+00     
-178.000         -90.000            3.365e-02           1.920e-02             228.831           1.446e-02             285.956           1.871e+00     
-177.000         -90.000            4.576e-02           2.629e-02             229.500           1.946e-02             283.667           1.993e+00     
-176.000         -90.000            4.751e-02           2.110e-02             231.151           2.640e-02             280.897           2.178e+00     
-175.000         -90.000            4.318e-02           8.656e-03             236.111           3.452e-02             277.733           3.473e+00     
-174.000         -90.000            4.309e-02           6.499e-04             275.821           4.244e-02             274.140           2.798e+02     
-173.000         -90.000            5.260e-02           4.218e-03              26.626           4.838e-02             270.018           3.859e+00     
-172.000         -90.000            6.606e-02           1.523e-02              36.167           5.083e-02             265.208           2.785e+00     
-171.000         -90.000            7.155e-02           2.249e-02              39.762           4.906e-02             259.487           3.042e+00     
-170.000         -90.000            6.223e-02           1.875e-02              43.569           4.348e-02             252.526           4.267e+00     
-169.000         -90.000            4.335e-02           7.845e-03              52.905           3.550e-02             243.846           1.361e+01     
-168.000         -90.000            2.829e-02           1.210e-03             111.045           2.708e-02             232.792           5.634e+00     
-167.000         -90.000            2.703e-02           7.047e-03             186.565           1.998e-02             218.679           4.037e+00     
-166.000         -90.000            3.749e-02           2.227e-02             197.639           1.522e-02             201.457           3.055e+01     
-165.000         -90.000            4.762e-02           3.478e-02             201.055           1.284e-02             182.773           7.041e+00     
-164.000         -90.000            4.618e-02           3.406e-02             202.989           1.212e-02             165.657           3.459e+00     
-163.000         -90.000            3.252e-02           2.049e-02             205.751           1.203e-02             152.266           2.101e+00     
