Theta [deg.]  Phi   [deg.]  Abs(Dir.)[      ]   Abs(Theta)[      ]  Phase(Theta)[deg.]  Abs(Phi  )[      ]  Phase(Phi  )[deg.]  Ax.Ratio[      ]    
------------------------------------------------------------------------------------------------------------------------------------------------------
-180.000         -90.000            6.861e-03           1.242e-07             193.479           6.861e-03             310.755           2.644e+02     
-179.000         -90.000            1.284e-02           6.021e-03             137.734           6.817e-03             307.905           1.165e+01     
-178.000         -90.000            2.610e-02           1.925e-02             137.870           6.850e-03             299.697           7.147e+00     
-177.000         -90.000            3.654e-02           2.920e-02             138.377           7.340e-03             287.561           4.657e+00     
-176.000         -90.000            3.669e-02           2.807e-02             139.536           8.618e-03             274.165           2.979e+00     
-175.000         -90.000            2.760e-02           1.690e-02             142.402           1.070e-02             261.973           1.806e+00     
-174.000         -90.000            1.777e-02           4.598e-03             152.693           1.317e-02             251.922           1.738e+00     
-173.000         -90.000            1.605e-02           7.444e-04             251.340           1.531e-02             243.789           3.616e+01     
-172.000         -90.000            2.432e-02           7.946e-03             297.179           1.637e-02             237.004           1.943e+00     
-171.000         -90.000            3.581e-02           1.990e-02             303.739           1.591e-02             231.046           1.387e+00     
-170.000         -90.000            4.055e-02           2.660e-02             306.731           1.395e-02             225.524           1.432e+00     
-169.000         -90.000            3.347e-02           2.252e-02             309.821           1.096e-02             220.150           1.434e+00     
-168.000         -90.000            1.870e-02           1.106e-02             316.456           7.640e-03             214.708           1.321e+00     
-167.000         -90.000            6.682e-03           2.012e-03             347.537           4.670e-03             209.025           2.952e+00     
-166.000         -90.000            6.256e-03           3.799e-03              83.918           2.457e-03             202.971           1.781e+00     
-165.000         -90.000            1.786e-02           1.677e-02             102.432           1.088e-03             196.516           3.937e+00     
-164.000         -90.000            3.300e-02           3.260e-02             107.231           4.013e-04             190.061           9.087e+00     
-163.000         -90.000            4.044e-02           4.031e-02             109.563           1.337e-04             185.662           1.789e+01     
