Theta [deg.]  Phi   [deg.]  Abs(Dir.)[      ]   Abs(Theta)[      ]  Phase(Theta)[deg.]  Abs(Phi  )[      ]  Phase(Phi  )[deg.]  Ax.Ratio[      ]    
------------------------------------------------------------------------------------------------------------------------------------------------------
-180.000         -90.000            9.492e-04           5.932e-09             313.175           9.492e-04              84.132           3.162e+02     
-179.000         -90.000            6.348e-03           5.478e-03               7.521           8.696e-04              83.278           2.619e+00     
-178.000         -90.000            1.923e-02           1.857e-02               7.654           6.597e-04              80.407           5.573e+00     
-177.000         -90.000            3.171e-02           3.131e-02               7.893           3.947e-04              73.970           9.764e+00     
-176.000         -90.000            3.616e-02           3.599e-02               8.357           1.703e-04              58.387           1.901e+01     
-175.000         -90.000            2.987e-02           2.980e-02               9.302           6.943e-05              14.401           2.336e+02     
-174.000         -90.000            1.667e-02           1.654e-02              11.521           1.313e-04             320.918           1.457e+01     
-173.000         -90.000            4.606e-03           4.271e-03              19.279           3.354e-04             299.680           3.638e+00     
-172.000         -90.000            1.027e-03           4.207e-04             127.602           6.063e-04             290.011           6.577e+00     
-171.000         -90.000            8.170e-03           7.330e-03             173.179           8.396e-04             283.817           3.207e+00     
-170.000         -90.000            2.186e-02           2.092e-02             178.638           9.402e-04             278.695           4.798e+00     
-169.000         -90.000            3.407e-02           3.321e-02             181.313           8.613e-04             273.527           6.215e+00     
-168.000         -90.000            3.775e-02           3.713e-02             183.903           6.272e-04             267.227           7.748e+00     
-167.000         -90.000            3.099e-02           3.066e-02             187.789           3.301e-04             257.381           1.030e+01     
-166.000         -90.000            1.805e-02           1.795e-02             195.570           1.001e-04             233.220           2.200e+01     
-165.000         -90.000            6.813e-03           6.756e-03             216.652           5.740e-05             154.437           1.229e+01     
-164.000         -90.000            4.081e-03           3.817e-03             275.842           2.643e-04             112.327           1.425e+01     
-163.000         -90.000            1.164e-02           1.094e-02             317.404           6.965e-04              98.420           6.548e+00     
