Theta [deg.]  Phi   [deg.]  Abs(Dir.)[      ]   Abs(Theta)[      ]  Phase(Theta)[deg.]  Abs(Phi  )[      ]  Phase(Phi  )[deg.]  Ax.Ratio[      ]    
------------------------------------------------------------------------------------------------------------------------------------------------------
-180.000         -90.000            1.071e-01           8.286e-09             336.235           1.071e-01             218.139           3.162e+02     
-179.000         -90.000            1.082e-01           2.579e-03             231.213           1.056e-01             217.815           2.825e+01     
-178.000         -90.000            1.109e-01           9.759e-03             231.153           1.011e-01             216.828           1.420e+01     
-177.000         -90.000            1.142e-01           1.997e-02             231.123           9.420e-02             215.136           9.452e+00     
-176.000         -90.000            1.164e-01           3.098e-02             231.104           8.537e-02             212.663           7.009e+00     
-175.000         -90.000            1.158e-01           4.039e-02             231.100           7.540e-02             209.303           5.468e+00     
-174.000         -90.000            1.112e-01           4.611e-02             231.124           6.511e-02             204.913           4.367e+00     
-173.000         -90.000            1.022e-01           4.689e-02             231.198           5.527e-02             199.331           3.517e+00     
-172.000         -90.000            8.908e-02           4.254e-02             231.362           4.655e-02             192.396           2.830e+00     
-171.000         -90.000            7.341e-02           3.398e-02             231.690           3.943e-02             184.023           2.273e+00     
-170.000         -90.000            5.728e-02           2.308e-02             232.349           3.419e-02             174.301           1.867e+00     
-169.000         -90.000            4.315e-02           1.227e-02             233.792           3.088e-02             163.592           1.800e+00     
-168.000         -90.000            3.331e-02           3.993e-03             237.951           2.932e-02             152.518           2.721e+00     
-167.000         -90.000            2.941e-02           2.169e-04             274.958           2.919e-02             141.773           1.597e+01     
-166.000         -90.000            3.208e-02           2.020e-03              34.283           3.006e-02             131.877           3.897e+00     
-165.000         -90.000            4.078e-02           9.351e-03              41.780           3.143e-02             123.058           1.873e+00     
-164.000         -90.000            5.388e-02           2.103e-02              44.046           3.284e-02             115.302           1.496e+00     
-163.000         -90.000            6.889e-02           3.500e-02              45.256           3.389e-02             108.460           1.626e+00     
