Theta [deg.]  Phi   [deg.]  Abs(Dir.)[      ]   Abs(Theta)[      ]  Phase(Theta)[deg.]  Abs(Phi  )[      ]  Phase(Phi  )[deg.]  Ax.Ratio[      ]    
------------------------------------------------------------------------------------------------------------------------------------------------------
-180.000         -90.000            9.812e-02           1.798e-08             250.933           9.812e-02             119.518           3.162e+02     
-179.000         -90.000            9.900e-02           2.245e-03             170.345           9.675e-02             119.157           8.503e+00     
-178.000         -90.000            1.012e-01           8.449e-03             170.300           9.278e-02             118.061           4.343e+00     
-177.000         -90.000            1.037e-01           1.715e-02             170.341           8.658e-02             116.185           2.986e+00     
-176.000         -90.000            1.050e-01           2.630e-02             170.442           7.873e-02             113.457           2.322e+00     
-175.000         -90.000            1.037e-01           3.372e-02             170.619           6.994e-02             109.776           1.925e+00     
-174.000         -90.000            9.862e-02           3.766e-02             170.909           6.096e-02             105.017           1.648e+00     
-173.000         -90.000            8.964e-02           3.716e-02             171.378           5.248e-02              99.056           1.432e+00     
-172.000         -90.000            7.741e-02           3.231e-02             172.151           4.510e-02              91.804           1.269e+00     
-171.000         -90.000            6.344e-02           2.425e-02             173.485           3.919e-02              83.280           1.271e+00     
-170.000         -90.000            4.987e-02           1.491e-02             176.019           3.496e-02              73.688           1.618e+00     
-169.000         -90.000            3.897e-02           6.588e-03             181.870           3.239e-02              63.447           2.658e+00     
-168.000         -90.000            3.270e-02           1.450e-03             203.471           3.125e-02              53.118           9.719e+00     
-167.000         -90.000            3.222e-02           1.010e-03             296.741           3.121e-02              43.225           5.813e+00     
-166.000         -90.000            3.763e-02           5.802e-03             327.007           3.183e-02              34.110           2.625e+00     
-165.000         -90.000            4.791e-02           1.523e-02             334.278           3.268e-02              25.892           2.306e+00     
-164.000         -90.000            6.105e-02           2.770e-02             337.497           3.335e-02              18.522           2.688e+00     
-163.000         -90.000            7.441e-02           4.089e-02             339.464           3.352e-02              11.865           3.462e+00     
