Theta [deg.]  Phi   [deg.]  Abs(Dir.)[      ]   Abs(Theta)[      ]  Phase(Theta)[deg.]  Abs(Phi  )[      ]  Phase(Phi  )[deg.]  Ax.Ratio[      ]    
------------------------------------------------------------------------------------------------------------------------------------------------------
-180.000         -90.000            6.640e-03           5.083e-08             127.918           6.640e-03             175.935           3.162e+02     
-179.000         -90.000            1.073e-02           3.719e-03             171.715           7.011e-03             172.459           1.620e+02     
-178.000         -90.000            1.986e-02           1.149e-02             172.298           8.368e-03             163.462           1.311e+01     
-177.000         -90.000            2.755e-02           1.630e-02             173.404           1.125e-02             152.291           5.466e+00     
-176.000         -90.000            2.986e-02           1.384e-02             175.698           1.602e-02             141.828           3.295e+00     
-175.000         -90.000            2.880e-02           6.371e-03             181.655           2.243e-02             133.056           2.862e+00     
-174.000         -90.000            3.015e-02           7.894e-04             215.077           2.936e-02             125.730           6.099e+00     
-173.000         -90.000            3.752e-02           2.427e-03             324.172           3.509e-02             119.289           9.558e+00     
-172.000         -90.000            4.813e-02           1.025e-02             339.139           3.788e-02             113.209           3.074e+00     
-171.000         -90.000            5.442e-02           1.773e-02             345.155           3.669e-02             107.026           2.017e+00     
-170.000         -90.000            5.031e-02           1.862e-02             351.113           3.169e-02             100.258           1.545e+00     
-169.000         -90.000            3.681e-02           1.254e-02               1.204           2.427e-02              92.279           1.392e+00     
-168.000         -90.000            2.178e-02           5.361e-03              26.389           1.642e-02              82.105           2.392e+00     
-167.000         -90.000            1.404e-02           4.040e-03              84.431           9.996e-03              68.196           7.772e+00     
-166.000         -90.000            1.632e-02           1.040e-02             121.604           5.921e-03              48.808           1.519e+00     
-165.000         -90.000            2.346e-02           1.942e-02             136.441           4.041e-03              24.924           2.437e+00     
-164.000         -90.000            2.704e-02           2.358e-02             146.079           3.458e-03               3.208           4.750e+00     
-163.000         -90.000            2.273e-02           1.953e-02             156.991           3.199e-03             349.504           1.320e+01     
