Theta [deg.]  Phi   [deg.]  Abs(Dir.)[      ]   Abs(Theta)[      ]  Phase(Theta)[deg.]  Abs(Phi  )[      ]  Phase(Phi  )[deg.]  Ax.Ratio[      ]    
------------------------------------------------------------------------------------------------------------------------------------------------------
-180.000         -90.000            8.969e-02           5.560e-08              85.650           8.969e-02             227.746           3.162e+02     
-179.000         -90.000            9.031e-02           1.901e-03             261.060           8.840e-02             227.373           1.248e+01     
-178.000         -90.000            9.192e-02           7.241e-03             261.105           8.468e-02             226.236           6.335e+00     
-177.000         -90.000            9.376e-02           1.488e-02             261.169           7.888e-02             224.282           4.328e+00     
-176.000         -90.000            9.476e-02           2.320e-02             261.270           7.156e-02             221.424           3.330e+00     
-175.000         -90.000            9.381e-02           3.040e-02             261.427           6.341e-02             217.538           2.713e+00     
-174.000         -90.000            9.010e-02           3.495e-02             261.668           5.515e-02             212.472           2.271e+00     
-173.000         -90.000            8.333e-02           3.584e-02             262.043           4.749e-02             206.072           1.915e+00     
-172.000         -90.000            7.384e-02           3.285e-02             262.635           4.099e-02             198.237           1.610e+00     
-171.000         -90.000            6.268e-02           2.661e-02             263.605           3.607e-02             189.015           1.367e+00     
-170.000         -90.000            5.137e-02           1.844e-02             265.306           3.293e-02             178.711           1.345e+00     
-169.000         -90.000            4.172e-02           1.016e-02             268.694           3.156e-02             167.895           1.824e+00     
-168.000         -90.000            3.542e-02           3.664e-03             277.525           3.175e-02             157.262           3.517e+00     
-167.000         -90.000            3.374e-02           5.913e-04             321.732           3.315e-02             147.377           7.746e+01     
-166.000         -90.000            3.723e-02           1.958e-03              46.218           3.528e-02             138.531           4.249e+00     
-165.000         -90.000            4.559e-02           7.953e-03              62.027           3.764e-02             130.755           2.413e+00     
-164.000         -90.000            5.765e-02           1.789e-02              67.113           3.976e-02             123.925           2.109e+00     
-163.000         -90.000            7.154e-02           3.029e-02              69.694           4.125e-02             117.855           2.277e+00     
