Theta [deg.]  Phi   [deg.]  Abs(Dir.)[      ]   Abs(Theta)[      ]  Phase(Theta)[deg.]  Abs(Phi  )[      ]  Phase(Phi  )[deg.]  Ax.Ratio[      ]    
------------------------------------------------------------------------------------------------------------------------------------------------------
-180.000         -90.000            6.597e-02           2.552e-08             248.400           6.597e-02             198.569           3.162e+02     
-179.000         -90.000            6.811e-02           2.904e-03              24.761           6.521e-02             198.092           4.260e+01     
-178.000         -90.000            7.394e-02           1.094e-02              25.000           6.301e-02             196.658           1.936e+01     
-177.000         -90.000            8.177e-02           2.216e-02              25.342           5.961e-02             194.231           1.159e+01     
-176.000         -90.000            8.925e-02           3.386e-02              25.848           5.539e-02             190.763           7.790e+00     
-175.000         -90.000            9.401e-02           4.325e-02              26.581           5.076e-02             186.200           5.582e+00     
-174.000         -90.000            9.429e-02           4.810e-02              27.638           4.619e-02             180.502           4.145e+00     
-173.000         -90.000            8.940e-02           4.731e-02              29.181           4.209e-02             173.687           3.131e+00     
-172.000         -90.000            7.995e-02           4.118e-02              31.508           3.877e-02             165.858           2.378e+00     
-171.000         -90.000            6.771e-02           3.130e-02              35.208           3.641e-02             157.239           1.815e+00     
-170.000         -90.000            5.524e-02           2.018e-02              41.617           3.506e-02             148.155           1.500e+00     
-169.000         -90.000            4.524e-02           1.062e-02              54.254           3.462e-02             138.982           1.820e+00     
-168.000         -90.000            3.996e-02           5.064e-03              82.471           3.489e-02             130.045           3.810e+00     
-167.000         -90.000            4.056e-02           4.989e-03             127.908           3.557e-02             121.564           2.752e+01     
-166.000         -90.000            4.692e-02           1.057e-02             157.232           3.635e-02             113.628           3.154e+00     
-165.000         -90.000            5.758e-02           2.065e-02             170.690           3.692e-02             106.230           1.734e+00     
-164.000         -90.000            7.007e-02           3.304e-02             177.944           3.703e-02              99.296           1.231e+00     
-163.000         -90.000            8.149e-02           4.499e-02             182.735           3.650e-02              92.725           1.110e+00     
