Theta [deg.]  Phi   [deg.]  Abs(Dir.)[      ]   Abs(Theta)[      ]  Phase(Theta)[deg.]  Abs(Phi  )[      ]  Phase(Phi  )[deg.]  Ax.Ratio[      ]    
------------------------------------------------------------------------------------------------------------------------------------------------------
-180.000         -90.000            3.423e-04           1.180e-06             349.475           3.411e-04             182.595           7.515e+01     
-179.000         -90.000            5.183e-03           4.742e-03             128.270           4.410e-04             177.734           4.493e+00     
-178.000         -90.000            1.639e-02           1.556e-02             128.839           8.253e-04             168.439           7.032e+00     
-177.000         -90.000            2.593e-02           2.424e-02             129.479           1.692e-03             160.636           7.696e+00     
-176.000         -90.000            2.742e-02           2.421e-02             130.574           3.205e-03             154.984           7.396e+00     
-175.000         -90.000            2.090e-02           1.557e-02             132.864           5.334e-03             150.592           7.398e+00     
-174.000         -90.000            1.269e-02           4.906e-03             139.776           7.787e-03             146.755           1.684e+01     
-173.000         -90.000            1.035e-02           2.973e-04             220.003           1.005e-02             143.069           5.979e+00     
-172.000         -90.000            1.674e-02           5.153e-03             293.372           1.158e-02             139.307           4.742e+00     
-171.000         -90.000            2.771e-02           1.574e-02             300.877           1.197e-02             135.345           7.954e+00     
-170.000         -90.000            3.528e-02           2.415e-02             304.951           1.113e-02             131.123           1.996e+01     
-169.000         -90.000            3.363e-02           2.434e-02             309.610           9.294e-03             126.650           4.327e+01     
-168.000         -90.000            2.360e-02           1.665e-02             317.807           6.947e-03             122.052           7.955e+00     
-167.000         -90.000            1.206e-02           7.451e-03             337.693           4.611e-03             117.722           2.853e+00     
-166.000         -90.000            6.829e-03           4.141e-03              29.187           2.688e-03             114.704           1.259e+00     
-165.000         -90.000            1.093e-02           9.549e-03              72.705           1.377e-03             115.671           4.182e+00     
-164.000         -90.000            2.048e-02           1.979e-02              89.021           6.922e-04             126.526           8.978e+00     
-163.000         -90.000            2.778e-02           2.722e-02              97.325           5.602e-04             149.325           8.916e+00     
