Theta [deg.]  Phi   [deg.]  Abs(Dir.)[      ]   Abs(Theta)[      ]  Phase(Theta)[deg.]  Abs(Phi  )[      ]  Phase(Phi  )[deg.]  Ax.Ratio[      ]    
------------------------------------------------------------------------------------------------------------------------------------------------------
-180.000         -90.000            4.121e-04           1.125e-07             251.679           4.120e-04             338.790           6.058e+01     
-179.000         -90.000            5.364e-03           4.920e-03              63.790           4.437e-04             336.388           3.334e+00     
-178.000         -90.000            1.749e-02           1.693e-02              63.919           5.523e-04             330.240           5.550e+00     
-177.000         -90.000            2.989e-02           2.913e-02              64.153           7.613e-04             322.802           6.315e+00     
-176.000         -90.000            3.557e-02           3.448e-02              64.599           1.086e-03             315.886           5.970e+00     
-175.000         -90.000            3.144e-02           2.993e-02              65.480           1.508e-03             310.056           4.981e+00     
-174.000         -90.000            2.006e-02           1.810e-02              67.445           1.962e-03             305.158           3.713e+00     
-173.000         -90.000            8.180e-03           5.838e-03              73.476           2.342e-03             300.831           2.627e+00     
-172.000         -90.000            2.855e-03           3.253e-04             138.623           2.530e-03             296.702           8.310e+00     
-171.000         -90.000            7.421e-03           4.986e-03             226.193           2.435e-03             292.385           1.760e+00     
-170.000         -90.000            1.961e-02           1.757e-02             233.588           2.039e-03             287.368           3.798e+00     
-169.000         -90.000            3.283e-02           3.141e-02             236.508           1.420e-03             280.681           6.909e+00     
-168.000         -90.000            3.990e-02           3.914e-02             238.830           7.526e-04             269.660           1.427e+01     
-167.000         -90.000            3.704e-02           3.678e-02             241.805           2.656e-04             243.427           3.162e+02     
-166.000         -90.000            2.604e-02           2.585e-02             246.974           1.869e-04             176.013           1.245e+01     
-165.000         -90.000            1.323e-02           1.256e-02             258.590           6.747e-04             135.278           5.249e+00     
-164.000         -90.000            6.101e-03           4.337e-03             293.703           1.765e-03             120.141           1.962e+01     
-163.000         -90.000            9.222e-03           5.874e-03             355.535           3.348e-03             111.369           1.734e+00     
