Theta [deg.]  Phi   [deg.]  Abs(Dir.)[      ]   Abs(Theta)[      ]  Phase(Theta)[deg.]  Abs(Phi  )[      ]  Phase(Phi  )[deg.]  Ax.Ratio[      ]    
------------------------------------------------------------------------------------------------------------------------------------------------------
-180.000         -90.000            1.672e-04           2.173e-07             293.315           1.670e-04             209.603           2.789e+01     
-179.000         -90.000            5.658e-03           5.451e-03              35.977           2.070e-04             200.750           2.023e+01     
-178.000         -90.000            1.849e-02           1.810e-02              36.546           3.927e-04             184.072           1.284e+01     
-177.000         -90.000            3.016e-02           2.929e-02              37.396           8.712e-04             171.524           8.196e+00     
-176.000         -90.000            3.321e-02           3.145e-02              38.941           1.758e-03             163.886           5.259e+00     
-175.000         -90.000            2.625e-02           2.323e-02              42.093           3.021e-03             158.963           3.201e+00     
-174.000         -90.000            1.491e-02           1.047e-02              50.155           4.441e-03             155.362           1.666e+00     
-173.000         -90.000            7.732e-03           2.070e-03              85.551           5.662e-03             152.398           1.941e+00     
-172.000         -90.000            1.023e-02           3.904e-03             172.014           6.330e-03             149.759           5.245e+00     
-171.000         -90.000            2.098e-02           1.474e-02             192.066           6.236e-03             147.348           2.745e+00     
-170.000         -90.000            3.251e-02           2.711e-02             198.327           5.402e-03             145.254           3.031e+00     
-169.000         -90.000            3.650e-02           3.242e-02             201.960           4.072e-03             143.842           3.451e+00     
-168.000         -90.000            2.954e-02           2.692e-02             205.714           2.613e-03             144.079           3.734e+00     
-167.000         -90.000            1.573e-02           1.435e-02             212.590           1.385e-03             148.564           3.652e+00     
-166.000         -90.000            4.237e-03           3.601e-03             236.385           6.356e-04             164.343           2.552e+00     
-165.000         -90.000            3.395e-03           2.939e-03             325.241           4.562e-04             198.129           3.381e+00     
-164.000         -90.000            1.525e-02           1.444e-02             355.021           8.084e-04             223.529           5.786e+00     
-163.000         -90.000            3.405e-02           3.247e-02               2.925           1.580e-03             230.414           6.289e+00     
