Theta [deg.]  Phi   [deg.]  Abs(Dir.)[      ]   Abs(Theta)[      ]  Phase(Theta)[deg.]  Abs(Phi  )[      ]  Phase(Phi  )[deg.]  Ax.Ratio[      ]    
------------------------------------------------------------------------------------------------------------------------------------------------------
-180.000         -90.000            1.171e-02           5.507e-08             255.012           1.171e-02             246.198           3.162e+02     
-179.000         -90.000            1.547e-02           3.761e-03              45.078           1.171e-02             245.169           6.636e+00     
-178.000         -90.000            2.531e-02           1.358e-02              45.299           1.173e-02             242.170           6.762e+00     
-177.000         -90.000            3.734e-02           2.549e-02              45.630           1.185e-02             237.397           1.044e+01     
-176.000         -90.000            4.684e-02           3.470e-02              46.168           1.214e-02             231.192           2.602e+01     
-175.000         -90.000            5.015e-02           3.748e-02              47.056           1.267e-02             224.008           4.327e+01     
-174.000         -90.000            4.616e-02           3.272e-02              48.583           1.343e-02             216.323           1.027e+01     
-173.000         -90.000            3.674e-02           2.237e-02              51.469           1.437e-02             208.523           5.058e+00     
-172.000         -90.000            2.605e-02           1.070e-02              58.044           1.535e-02             200.831           3.031e+00     
-171.000         -90.000            1.885e-02           2.661e-03              81.031           1.619e-02             193.305           2.739e+00     
-170.000         -90.000            1.863e-02           1.899e-03             166.577           1.673e-02             185.873           9.899e+00     
-169.000         -90.000            2.616e-02           9.331e-03             198.696           1.683e-02             178.376           5.840e+00     
-168.000         -90.000            3.917e-02           2.271e-02             207.115           1.645e-02             170.615           3.082e+00     
-167.000         -90.000            5.311e-02           3.747e-02             211.116           1.564e-02             162.364           2.521e+00     
-166.000         -90.000            6.292e-02           4.840e-02             213.922           1.452e-02             153.399           2.290e+00     
-165.000         -90.000            6.491e-02           5.164e-02             216.655           1.327e-02             143.538           2.119e+00     
-164.000         -90.000            5.821e-02           4.611e-02             220.134           1.209e-02             132.690           1.956e+00     
-163.000         -90.000            4.515e-02           3.401e-02             225.566           1.114e-02             120.944           1.860e+00     
