Theta [deg.]  Phi   [deg.]  Abs(Dir.)[      ]   Abs(Theta)[      ]  Phase(Theta)[deg.]  Abs(Phi  )[      ]  Phase(Phi  )[deg.]  Ax.Ratio[      ]    
------------------------------------------------------------------------------------------------------------------------------------------------------
-180.000         -90.000            4.700e-02           2.041e-07             108.863           4.700e-02             232.464           3.162e+02     
-179.000         -90.000            4.961e-02           3.229e-03              86.661           4.638e-02             231.988           6.982e+00     
-178.000         -90.000            5.671e-02           1.210e-02              86.762           4.461e-02             230.530           3.872e+00     
-177.000         -90.000            6.649e-02           2.463e-02              87.005           4.186e-02             228.034           2.954e+00     
-176.000         -90.000            7.649e-02           3.806e-02              87.397           3.843e-02             224.415           2.540e+00     
-175.000         -90.000            8.409e-02           4.942e-02              87.978           3.467e-02             219.559           2.277e+00     
-174.000         -90.000            8.721e-02           5.624e-02              88.820           3.097e-02             213.351           2.048e+00     
-173.000         -90.000            8.478e-02           5.708e-02              90.041           2.770e-02             205.715           1.815e+00     
-172.000         -90.000            7.700e-02           5.186e-02              91.850           2.515e-02             196.694           1.568e+00     
-171.000         -90.000            6.538e-02           4.184e-02              94.648           2.354e-02             186.525           1.336e+00     
-170.000         -90.000            5.236e-02           2.937e-02              99.234           2.299e-02             175.675           1.309e+00     
-169.000         -90.000            4.078e-02           1.730e-02             107.577           2.348e-02             164.738           1.875e+00     
-168.000         -90.000            3.330e-02           8.402e-03             125.046           2.490e-02             154.258           4.495e+00     
-167.000         -90.000            3.176e-02           4.725e-03             162.327           2.704e-02             144.573           9.106e+00     
-166.000         -90.000            3.679e-02           7.169e-03             203.852           2.962e-02             135.796           2.284e+00     
-165.000         -90.000            4.765e-02           1.530e-02             224.967           3.235e-02             127.879           1.485e+00     
-164.000         -90.000            6.238e-02           2.745e-02             235.134           3.492e-02             120.697           1.580e+00     
-163.000         -90.000            7.821e-02           4.114e-02             241.068           3.707e-02             114.102           2.009e+00     
