Theta [deg.]  Phi   [deg.]  Abs(Dir.)[      ]   Abs(Theta)[      ]  Phase(Theta)[deg.]  Abs(Phi  )[      ]  Phase(Phi  )[deg.]  Ax.Ratio[      ]    
------------------------------------------------------------------------------------------------------------------------------------------------------
-180.000         -90.000            1.576e-02           2.186e-07             126.083           1.576e-02             307.543           3.162e+02     
-179.000         -90.000            1.964e-02           3.985e-03             123.600           1.566e-02             306.894           4.325e+01     
-178.000         -90.000            2.968e-02           1.434e-02             123.778           1.533e-02             304.950           9.779e+01     
-177.000         -90.000            4.204e-02           2.722e-02             124.131           1.482e-02             301.759           5.054e+01     
-176.000         -90.000            5.200e-02           3.783e-02             124.727           1.417e-02             297.397           1.755e+01     
-175.000         -90.000            5.566e-02           4.225e-02             125.705           1.341e-02             291.967           9.745e+00     
-174.000         -90.000            5.144e-02           3.887e-02             127.346           1.257e-02             285.581           6.113e+00     
-173.000         -90.000            4.069e-02           2.904e-02             130.290           1.166e-02             278.329           3.924e+00     
-172.000         -90.000            2.718e-02           1.652e-02             136.285           1.066e-02             270.252           2.435e+00     
-171.000         -90.000            1.580e-02           6.208e-03             152.102           9.594e-03             261.284           1.502e+00     
-170.000         -90.000            1.074e-02           2.267e-03             206.454           8.472e-03             251.239           3.162e+00     
-169.000         -90.000            1.398e-02           6.618e-03             259.912           7.362e-03             239.786           5.644e+00     
-168.000         -90.000            2.458e-02           1.821e-02             275.664           6.370e-03             226.497           2.637e+00     
-167.000         -90.000            3.903e-02           3.339e-02             282.082           5.638e-03             211.047           2.627e+00     
-166.000         -90.000            5.247e-02           4.715e-02             285.812           5.320e-03             193.645           2.980e+00     
-165.000         -90.000            6.052e-02           5.497e-02             288.781           5.548e-03             175.432           3.488e+00     
-164.000         -90.000            6.073e-02           5.433e-02             291.923           6.405e-03             158.138           4.276e+00     
-163.000         -90.000            5.350e-02           4.561e-02             296.147           7.888e-03             143.014           6.076e+00     
