Theta [deg.]  Phi   [deg.]  Abs(Dir.)[      ]   Abs(Theta)[      ]  Phase(Theta)[deg.]  Abs(Phi  )[      ]  Phase(Phi  )[deg.]  Ax.Ratio[      ]    
------------------------------------------------------------------------------------------------------------------------------------------------------
-180.000         -90.000            4.256e-02           2.205e-07              40.208           4.256e-02             138.672           3.162e+02     
-179.000         -90.000            4.559e-02           3.587e-03              22.992           4.201e-02             138.193           3.845e+00     
-178.000         -90.000            5.382e-02           1.340e-02              23.102           4.043e-02             136.723           2.032e+00     
-177.000         -90.000            6.511e-02           2.714e-02              23.332           3.798e-02             134.210           1.507e+00     
-176.000         -90.000            7.651e-02           4.160e-02              23.699           3.492e-02             130.569           1.366e+00     
-175.000         -90.000            8.498e-02           5.342e-02              24.246           3.156e-02             125.692           1.395e+00     
-174.000         -90.000            8.814e-02           5.989e-02              25.050           2.825e-02             119.465           1.468e+00     
-173.000         -90.000            8.486e-02           5.956e-02              26.236           2.530e-02             111.814           1.545e+00     
-172.000         -90.000            7.560e-02           5.260e-02              28.034           2.300e-02             102.778           1.645e+00     
-171.000         -90.000            6.227e-02           4.073e-02              30.906           2.154e-02              92.582           1.847e+00     
-170.000         -90.000            4.785e-02           2.683e-02              35.841           2.102e-02              81.676           2.391e+00     
-169.000         -90.000            3.569e-02           1.424e-02              45.546           2.145e-02              70.641           4.597e+00     
-168.000         -90.000            2.873e-02           6.011e-03              68.530           2.272e-02              60.018           1.655e+01     
-167.000         -90.000            2.884e-02           4.182e-03             117.281           2.465e-02              50.154           2.714e+00     
-166.000         -90.000            3.636e-02           9.339e-03             154.394           2.702e-02              41.172           1.987e+00     
-165.000         -90.000            5.002e-02           2.049e-02             169.735           2.953e-02              33.035           2.577e+00     
-164.000         -90.000            6.723e-02           3.530e-02             177.239           3.193e-02              25.622           3.960e+00     
-163.000         -90.000            8.462e-02           5.067e-02             181.884           3.396e-02              18.790           6.870e+00     
