Theta [deg.]  Phi   [deg.]  Abs(Dir.)[      ]   Abs(Theta)[      ]  Phase(Theta)[deg.]  Abs(Phi  )[      ]  Phase(Phi  )[deg.]  Ax.Ratio[      ]    
------------------------------------------------------------------------------------------------------------------------------------------------------
-180.000         -90.000            1.966e-02           1.268e-07             251.860           1.966e-02             129.678           3.162e+02     
-179.000         -90.000            2.313e-02           3.700e-03             245.868           1.943e-02             129.025           2.685e+00     
-178.000         -90.000            3.222e-02           1.344e-02             246.005           1.878e-02             127.076           1.744e+00     
-177.000         -90.000            4.365e-02           2.587e-02             246.292           1.778e-02             123.825           1.881e+00     
-176.000         -90.000            5.326e-02           3.671e-02             246.779           1.654e-02             119.272           2.287e+00     
-175.000         -90.000            5.745e-02           4.225e-02             247.568           1.521e-02             113.437           2.801e+00     
-174.000         -90.000            5.447e-02           4.059e-02             248.863           1.388e-02             106.369           3.482e+00     
-173.000         -90.000            4.501e-02           3.235e-02             251.098           1.265e-02              98.157           4.676e+00     
-172.000         -90.000            3.205e-02           2.048e-02             255.362           1.157e-02              88.915           8.771e+00     
-171.000         -90.000            1.983e-02           9.195e-03             265.263           1.063e-02              78.765           1.766e+01     
-170.000         -90.000            1.247e-02           2.629e-03             298.239           9.843e-03              67.793           2.826e+00     
-169.000         -90.000            1.260e-02           3.396e-03               8.384           9.201e-03              56.037           2.675e+00     
-168.000         -90.000            2.042e-02           1.170e-02              34.394           8.720e-03              43.505           1.269e+01     
-167.000         -90.000            3.368e-02           2.524e-02              43.098           8.442e-03              30.240           1.027e+01     
-166.000         -90.000            4.841e-02           3.998e-02              47.494           8.432e-03              16.412           4.903e+00     
-165.000         -90.000            6.019e-02           5.142e-02              50.506           8.766e-03               2.386           3.524e+00     
-164.000         -90.000            6.562e-02           5.611e-02              53.283           9.504e-03             348.673           2.786e+00     
-163.000         -90.000            6.342e-02           5.275e-02              56.550           1.067e-02             335.789           2.267e+00     
