Theta [deg.]  Phi   [deg.]  Abs(Dir.)[      ]   Abs(Theta)[      ]  Phase(Theta)[deg.]  Abs(Phi  )[      ]  Phase(Phi  )[deg.]  Ax.Ratio[      ]    
------------------------------------------------------------------------------------------------------------------------------------------------------
-180.000         -90.000            1.206e-02           3.501e-07             204.093           1.206e-02             296.918           1.858e+02     
-179.000         -90.000            1.675e-02           4.692e-03             234.373           1.205e-02             296.513           2.025e+00     
-178.000         -90.000            2.869e-02           1.665e-02             234.735           1.204e-02             295.284           1.758e+00     
-177.000         -90.000            4.282e-02           3.082e-02             235.223           1.200e-02             293.278           2.162e+00     
-176.000         -90.000            5.311e-02           4.124e-02             235.999           1.187e-02             290.561           2.555e+00     
-175.000         -90.000            5.518e-02           4.357e-02             237.280           1.161e-02             287.195           2.857e+00     
-174.000         -90.000            4.807e-02           3.693e-02             239.508           1.114e-02             283.225           3.107e+00     
-173.000         -90.000            3.471e-02           2.428e-02             243.777           1.043e-02             278.651           3.532e+00     
-172.000         -90.000            2.055e-02           1.112e-02             253.739           9.427e-03             273.418           5.787e+00     
-171.000         -90.000            1.138e-02           3.221e-03             286.779           8.156e-03             267.366           6.525e+00     
-170.000         -90.000            1.079e-02           4.108e-03             356.405           6.678e-03             260.181           1.306e+00     
-169.000         -90.000            1.875e-02           1.364e-02              22.485           5.112e-03             251.262           2.601e+00     
-168.000         -90.000            3.168e-02           2.805e-02              31.357           3.628e-03             239.465           6.512e+00     
-167.000         -90.000            4.398e-02           4.155e-02              36.011           2.424e-03             222.665           3.779e+01     
-166.000         -90.000            5.048e-02           4.878e-02              39.521           1.700e-03             197.996           1.504e+01     
-165.000         -90.000            4.858e-02           4.696e-02              43.226           1.622e-03             166.745           6.523e+00     
-164.000         -90.000            3.935e-02           3.706e-02              48.419           2.290e-03             138.629           4.023e+00     
-163.000         -90.000            2.711e-02           2.339e-02              57.517           3.714e-03             118.757           2.982e+00     
