Theta [deg.]  Phi   [deg.]  Abs(Dir.)[      ]   Abs(Theta)[      ]  Phase(Theta)[deg.]  Abs(Phi  )[      ]  Phase(Phi  )[deg.]  Ax.Ratio[      ]    
------------------------------------------------------------------------------------------------------------------------------------------------------
-180.000         -90.000            3.080e-03           1.205e-07             334.683           3.080e-03             154.125           3.162e+02     
-179.000         -90.000            4.272e-03           1.409e-03             355.614           2.863e-03             155.143           5.912e+00     
-178.000         -90.000            6.852e-03           4.557e-03             355.894           2.295e-03             158.643           7.002e+00     
-177.000         -90.000            8.752e-03           7.145e-03             356.268           1.607e-03             166.224           1.474e+01     
-176.000         -90.000            8.388e-03           7.321e-03             356.969           1.067e-03             180.807           4.482e+01     
-175.000         -90.000            5.883e-03           5.016e-03             358.516           8.662e-04             203.140           6.622e+00     
-174.000         -90.000            2.975e-03           1.921e-03               2.858           1.055e-03             224.038           2.820e+00     
-173.000         -90.000            1.683e-03           1.480e-04              34.024           1.535e-03             235.272           9.639e+00     
-172.000         -90.000            2.792e-03           6.628e-04             154.894           2.129e-03             238.230           1.815e+00     
-171.000         -90.000            5.306e-03           2.647e-03             165.122           2.659e-03             235.828           1.410e+00     
-170.000         -90.000            7.278e-03           4.260e-03             169.027           3.018e-03             229.772           1.757e+00     
-169.000         -90.000            7.313e-03           4.130e-03             173.146           3.183e-03             221.023           2.281e+00     
-168.000         -90.000            5.635e-03           2.439e-03             181.344           3.196e-03             210.325           3.910e+00     
-167.000         -90.000            3.855e-03           7.480e-04             208.815           3.107e-03             198.493           1.404e+01     
-166.000         -90.000            3.693e-03           7.569e-04             285.370           2.936e-03             186.485           2.010e+00     
-165.000         -90.000            5.611e-03           2.950e-03             315.011           2.661e-03             175.302           2.731e+00     
-164.000         -90.000            8.415e-03           6.170e-03             324.365           2.244e-03             165.919           5.988e+00     
-163.000         -90.000            1.011e-02           8.420e-03             330.000           1.686e-03             159.553           1.610e+01     
