Theta [deg.]  Phi   [deg.]  Abs(Dir.)[      ]   Abs(Theta)[      ]  Phase(Theta)[deg.]  Abs(Phi  )[      ]  Phase(Phi  )[deg.]  Ax.Ratio[      ]    
------------------------------------------------------------------------------------------------------------------------------------------------------
-180.000         -90.000            8.197e-03           1.961e-07             172.823           8.197e-03             258.278           2.051e+02     
-179.000         -90.000            1.121e-02           2.983e-03             176.295           8.224e-03             258.393           1.694e+00     
-178.000         -90.000            1.838e-02           1.008e-02             176.639           8.295e-03             258.697           1.185e+00     
-177.000         -90.000            2.547e-02           1.710e-02             177.308           8.361e-03             259.060           1.473e+00     
-176.000         -90.000            2.827e-02           1.992e-02             178.533           8.348e-03             259.304           1.593e+00     
-175.000         -90.000            2.507e-02           1.691e-02             180.863           8.164e-03             259.241           1.521e+00     
-174.000         -90.000            1.765e-02           9.927e-03             185.927           7.722e-03             258.691           1.392e+00     
-173.000         -90.000            1.020e-02           3.238e-03             201.135           6.964e-03             257.477           2.106e+00     
-172.000         -90.000            6.870e-03           9.741e-04             272.153           5.896e-03             255.404           9.846e+00     
-171.000         -90.000            9.321e-03           4.724e-03             323.992           4.597e-03             252.189           1.382e+00     
-170.000         -90.000            1.580e-02           1.258e-02             335.760           3.216e-03             247.318           1.979e+00     
-169.000         -90.000            2.218e-02           2.024e-02             341.093           1.942e-03             239.660           3.307e+00     
-168.000         -90.000            2.445e-02           2.349e-02             345.243           9.605e-04             226.254           5.710e+00     
-167.000         -90.000            2.104e-02           2.064e-02             350.301           3.991e-04             198.418           1.549e+01     
-166.000         -90.000            1.382e-02           1.352e-02             358.977           2.952e-04             147.951           1.334e+01     
-165.000         -90.000            7.039e-03           6.453e-03              18.558           5.859e-04             109.827           3.320e+00     
-164.000         -90.000            4.969e-03           3.841e-03              63.986           1.128e-03              90.152           5.222e+00     
-163.000         -90.000            9.443e-03           7.701e-03             105.847           1.742e-03              77.066           5.160e+00     
