Theta [deg.]  Phi   [deg.]  Abs(Dir.)[      ]   Abs(Theta)[      ]  Phase(Theta)[deg.]  Abs(Phi  )[      ]  Phase(Phi  )[deg.]  Ax.Ratio[      ]    
------------------------------------------------------------------------------------------------------------------------------------------------------
-180.000         -90.000            1.977e-02           1.662e-09             145.971           1.977e-02             327.688           3.162e+02     
-179.000         -90.000            2.418e-02           4.694e-03             264.769           1.949e-02             327.212           2.442e+00     
-178.000         -90.000            3.555e-02           1.688e-02             264.984           1.867e-02             325.794           1.709e+00     
-177.000         -90.000            4.898e-02           3.161e-02             265.367           1.737e-02             323.408           1.951e+00     
-176.000         -90.000            5.860e-02           4.293e-02             266.007           1.567e-02             319.999           2.372e+00     
-175.000         -90.000            5.994e-02           4.627e-02             267.064           1.368e-02             315.473           2.833e+00     
-174.000         -90.000            5.184e-02           4.031e-02             268.880           1.153e-02             309.666           3.386e+00     
-173.000         -90.000            3.693e-02           2.757e-02             272.277           9.360e-03             302.298           4.366e+00     
-172.000         -90.000            2.066e-02           1.334e-02             279.908           7.325e-03             292.923           9.173e+00     
-171.000         -90.000            9.240e-03           3.669e-03             305.013           5.571e-03             280.838           4.782e+00     
-170.000         -90.000            7.114e-03           2.876e-03              22.146           4.238e-03             265.144           1.698e+00     
-169.000         -90.000            1.529e-02           1.184e-02              54.775           3.442e-03             245.297           1.303e+01     
-168.000         -90.000            3.092e-02           2.765e-02              64.338           3.269e-03             222.510           8.630e+00     
-167.000         -90.000            4.846e-02           4.470e-02              69.084           3.760e-03             200.150           4.747e+00     
-166.000         -90.000            6.181e-02           5.691e-02              72.568           4.901e-03             181.010           3.625e+00     
-165.000         -90.000            6.664e-02           6.003e-02              76.097           6.618e-03             165.522           3.012e+00     
-164.000         -90.000            6.207e-02           5.329e-02              80.692           8.781e-03             152.871           2.634e+00     
-163.000         -90.000            5.088e-02           3.967e-02              87.863           1.121e-02             142.166           2.584e+00     
