Theta [deg.]  Phi   [deg.]  Abs(Dir.)[      ]   Abs(Theta)[      ]  Phase(Theta)[deg.]  Abs(Phi  )[      ]  Phase(Phi  )[deg.]  Ax.Ratio[      ]    
------------------------------------------------------------------------------------------------------------------------------------------------------
-180.000         -90.000            6.600e-03           2.673e-07             279.387           6.599e-03             318.732           2.478e+02     
-179.000         -90.000            9.278e-03           2.683e-03             318.968           6.596e-03             319.176           3.162e+02     
-178.000         -90.000            1.555e-02           8.970e-03             319.385           6.582e-03             320.428           1.113e+02     
-177.000         -90.000            2.147e-02           1.492e-02             319.915           6.547e-03             322.216           5.409e+01     
-176.000         -90.000            2.331e-02           1.685e-02             320.826           6.465e-03             324.151           3.849e+01     
-175.000         -90.000            1.989e-02           1.360e-02             322.580           6.285e-03             325.804           3.822e+01     
-174.000         -90.000            1.322e-02           7.279e-03             326.599           5.944e-03             326.769           3.162e+02     
-173.000         -90.000            7.212e-03           1.821e-03             340.606           5.391e-03             326.696           9.469e+00     
-172.000         -90.000            5.119e-03           5.083e-04              77.450           4.611e-03             325.255           3.309e+00     
-171.000         -90.000            7.568e-03           3.915e-03             117.888           3.653e-03             322.039           4.677e+00     
-170.000         -90.000            1.226e-02           9.634e-03             125.679           2.628e-03             316.386           1.304e+01     
-169.000         -90.000            1.557e-02           1.389e-02             129.796           1.684e-03             306.985           6.564e+01     
-168.000         -90.000            1.495e-02           1.398e-02             133.938           9.646e-04             291.117           1.040e+01     
-167.000         -90.000            1.058e-02           1.002e-02             140.598           5.625e-04             264.365           5.168e+00     
-166.000         -90.000            5.285e-03           4.796e-03             155.838           4.894e-04             228.412           3.314e+00     
-165.000         -90.000            2.728e-03           2.055e-03             199.860           6.735e-04             197.878           6.705e+01     
-164.000         -90.000            5.087e-03           4.103e-03             252.618           9.848e-04             176.935           2.146e+00     
-163.000         -90.000            1.165e-02           1.037e-02             272.323           1.282e-03             161.006           3.109e+00     
