Theta [deg.]  Phi   [deg.]  Abs(Dir.)[      ]   Abs(Theta)[      ]  Phase(Theta)[deg.]  Abs(Phi  )[      ]  Phase(Phi  )[deg.]  Ax.Ratio[      ]    
------------------------------------------------------------------------------------------------------------------------------------------------------
-180.000         -90.000            4.966e-03           7.609e-07             208.280           4.965e-03             167.432           1.235e+02     
-179.000         -90.000            6.743e-03           1.848e-03             315.515           4.895e-03             168.711           3.834e+00     
-178.000         -90.000            1.079e-02           6.066e-03             316.415           4.724e-03             172.391           3.110e+00     
-177.000         -90.000            1.408e-02           9.534e-03             317.295           4.548e-03             177.961           2.942e+00     
-176.000         -90.000            1.412e-02           9.679e-03             318.753           4.444e-03             184.424           2.630e+00     
-175.000         -90.000            1.081e-02           6.395e-03             321.825           4.415e-03             190.439           2.271e+00     
-174.000         -90.000            6.529e-03           2.159e-03             331.116           4.370e-03             194.756           2.711e+00     
-173.000         -90.000            4.436e-03           2.611e-04              43.834           4.175e-03             196.499           9.144e+00     
-172.000         -90.000            6.132e-03           2.394e-03             112.777           3.738e-03             195.047           1.299e+00     
-171.000         -90.000            1.045e-02           7.373e-03             122.253           3.081e-03             189.665           1.829e+00     
-170.000         -90.000            1.427e-02           1.192e-02             126.341           2.355e-03             179.149           3.055e+00     
-169.000         -90.000            1.474e-02           1.296e-02             129.854           1.779e-03             161.990           5.592e+00     
-168.000         -90.000            1.138e-02           9.839e-03             134.950           1.539e-03             138.555           4.648e+01     
-167.000         -90.000            6.484e-03           4.790e-03             146.039           1.694e-03             113.951           4.037e+00     
-166.000         -90.000            3.566e-03           1.428e-03             183.093           2.138e-03              93.392           1.224e+00     
-165.000         -90.000            4.860e-03           2.216e-03             252.015           2.644e-03              77.211           2.212e+01     
-164.000         -90.000            9.713e-03           6.755e-03             276.102           2.959e-03              63.590           3.778e+00     
-163.000         -90.000            1.497e-02           1.206e-02             285.479           2.910e-03              50.762           2.729e+00     
