Theta [deg.]  Phi   [deg.]  Abs(Dir.)[      ]   Abs(Theta)[      ]  Phase(Theta)[deg.]  Abs(Phi  )[      ]  Phase(Phi  )[deg.]  Ax.Ratio[      ]    
------------------------------------------------------------------------------------------------------------------------------------------------------
-180.000         -90.000            1.203e-02           1.466e-07              62.375           1.203e-02             193.647           3.162e+02     
-179.000         -90.000            1.563e-02           3.594e-03              28.094           1.204e-02             193.441           9.287e+00     
-178.000         -90.000            2.436e-02           1.230e-02              28.240           1.206e-02             192.815           7.384e+00     
-177.000         -90.000            3.326e-02           2.125e-02              28.719           1.202e-02             191.787           7.005e+00     
-176.000         -90.000            3.725e-02           2.541e-02              29.645           1.184e-02             190.375           6.350e+00     
-175.000         -90.000            3.386e-02           2.245e-02              31.408           1.141e-02             188.589           5.265e+00     
-174.000         -90.000            2.469e-02           1.405e-02              35.146           1.064e-02             186.417           3.948e+00     
-173.000         -90.000            1.455e-02           5.055e-03              45.748           9.490e-03             183.811           2.783e+00     
-172.000         -90.000            8.846e-03           8.778e-04             104.909           7.968e-03             180.669           3.131e+00     
-171.000         -90.000            1.067e-02           4.495e-03             176.452           6.180e-03             176.790           3.162e+02     
-170.000         -90.000            1.909e-02           1.478e-02             189.376           4.306e-03             171.760           7.777e+00     
-169.000         -90.000            2.959e-02           2.701e-02             194.456           2.577e-03             164.630           6.987e+00     
-168.000         -90.000            3.653e-02           3.531e-02             197.993           1.224e-03             152.723           7.692e+00     
-167.000         -90.000            3.614e-02           3.572e-02             201.807           4.276e-04             126.257           9.445e+00     
-166.000         -90.000            2.857e-02           2.830e-02             207.512           2.703e-04              66.190           1.647e+01     
-165.000         -90.000            1.786e-02           1.715e-02             218.269           7.148e-04              24.191           2.093e+01     
-164.000         -90.000            9.953e-03           8.340e-03             242.723           1.613e-03               6.368           2.917e+00     
-163.000         -90.000            9.592e-03           6.847e-03             288.475           2.745e-03             355.403           1.870e+00     
