Theta [deg.]  Phi   [deg.]  Abs(Dir.)[      ]   Abs(Theta)[      ]  Phase(Theta)[deg.]  Abs(Phi  )[      ]  Phase(Phi  )[deg.]  Ax.Ratio[      ]    
------------------------------------------------------------------------------------------------------------------------------------------------------
-180.000         -90.000            2.129e-02           1.136e-08             341.630           2.129e-02             160.472           3.162e+02     
-179.000         -90.000            2.438e-02           3.561e-03             279.853           2.082e-02             159.837           2.928e+00     
-178.000         -90.000            3.255e-02           1.307e-02             280.012           1.948e-02             157.871           1.876e+00     
-177.000         -90.000            4.288e-02           2.543e-02             280.378           1.745e-02             154.438           2.019e+00     
-176.000         -90.000            5.162e-02           3.661e-02             280.987           1.501e-02             149.299           2.558e+00     
-175.000         -90.000            5.548e-02           4.300e-02             281.948           1.247e-02             142.093           3.423e+00     
-174.000         -90.000            5.274e-02           4.257e-02             283.468           1.017e-02             132.365           5.046e+00     
-173.000         -90.000            4.391e-02           3.552e-02             285.971           8.390e-03             119.724           1.061e+01     
-172.000         -90.000            3.164e-02           2.431e-02             290.445           7.324e-03             104.256           2.194e+01     
-171.000         -90.000            1.983e-02           1.275e-02             299.696           7.085e-03              87.038           3.589e+00     
-170.000         -90.000            1.254e-02           4.854e-03             323.984           7.688e-03              69.927           1.442e+00     
-169.000         -90.000            1.259e-02           3.529e-03              20.379           9.064e-03              54.445           3.705e+00     
-168.000         -90.000            2.069e-02           9.613e-03              56.748           1.108e-02              41.078           7.286e+00     
-167.000         -90.000            3.516e-02           2.161e-02              70.003           1.355e-02              29.588           2.814e+00     
-166.000         -90.000            5.245e-02           3.614e-02              76.377           1.630e-02              19.526           2.106e+00     
-165.000         -90.000            6.815e-02           4.902e-02              80.411           1.913e-02              10.486           1.820e+00     
-164.000         -90.000            7.837e-02           5.650e-02              83.730           2.186e-02               2.171           1.647e+00     
-163.000         -90.000            8.084e-02           5.652e-02              87.176           2.432e-02             354.384           1.529e+00     
