Theta [deg.]  Phi   [deg.]  Abs(Dir.)[      ]   Abs(Theta)[      ]  Phase(Theta)[deg.]  Abs(Phi  )[      ]  Phase(Phi  )[deg.]  Ax.Ratio[      ]    
------------------------------------------------------------------------------------------------------------------------------------------------------
-180.000         -90.000            1.711e-02           8.326e-08             339.717           1.711e-02             116.092           3.162e+02     
-179.000         -90.000            2.106e-02           4.382e-03             265.775           1.667e-02             115.430           4.769e+00     
-178.000         -90.000            3.155e-02           1.614e-02             265.890           1.542e-02             113.387           4.088e+00     
-177.000         -90.000            4.512e-02           3.160e-02             266.280           1.352e-02             109.784           5.284e+00     
-176.000         -90.000            5.724e-02           4.596e-02             266.948           1.128e-02             104.289           8.315e+00     
-175.000         -90.000            6.381e-02           5.480e-02             267.993           9.005e-03              96.384           1.963e+01     
-174.000         -90.000            6.251e-02           5.548e-02             269.615           7.028e-03              85.374           4.278e+01     
-173.000         -90.000            5.354e-02           4.793e-02             272.205           5.601e-03              70.670           8.787e+00     
-172.000         -90.000            3.963e-02           3.473e-02             276.611           4.892e-03              52.594           4.133e+00     
-171.000         -90.000            2.516e-02           2.021e-02             285.021           4.952e-03              33.191           2.191e+00     
-170.000         -90.000            1.485e-02           9.121e-03             304.110           5.727e-03              15.165           1.510e+00     
-169.000         -90.000            1.224e-02           5.162e-03             347.958           7.075e-03             359.853           9.721e+00     
-168.000         -90.000            1.860e-02           9.804e-03              30.388           8.796e-03             347.070           2.523e+00     
-167.000         -90.000            3.254e-02           2.187e-02              48.844           1.068e-02             336.088           1.608e+00     
-166.000         -90.000            5.042e-02           3.790e-02              57.600           1.251e-02             326.225           1.741e+00     
-165.000         -90.000            6.742e-02           5.326e-02              62.946           1.415e-02             316.980           2.071e+00     
-164.000         -90.000            7.906e-02           6.357e-02              67.125           1.550e-02             308.013           2.480e+00     
-163.000         -90.000            8.248e-02           6.599e-02              71.207           1.650e-02             299.105           3.041e+00     
