Theta [deg.]  Phi   [deg.]  Abs(Dir.)[      ]   Abs(Theta)[      ]  Phase(Theta)[deg.]  Abs(Phi  )[      ]  Phase(Phi  )[deg.]  Ax.Ratio[      ]    
------------------------------------------------------------------------------------------------------------------------------------------------------
-180.000         -90.000            1.760e-02           1.983e-07             341.237           1.760e-02             100.762           3.162e+02     
-179.000         -90.000            2.193e-02           4.668e-03               7.235           1.726e-02             100.199           1.927e+00     
-178.000         -90.000            3.310e-02           1.683e-02               7.489           1.627e-02              98.439           1.024e+00     
-177.000         -90.000            4.672e-02           3.198e-02               7.840           1.474e-02              95.400           1.476e+00     
-176.000         -90.000            5.736e-02           4.449e-02               8.393           1.287e-02              90.936           1.888e+00     
-175.000         -90.000            6.060e-02           4.974e-02               9.284           1.086e-02              84.832           2.248e+00     
-174.000         -90.000            5.474e-02           4.583e-02              10.772           8.912e-03              76.808           2.576e+00     
-173.000         -90.000            4.150e-02           3.428e-02              13.429           7.219e-03              66.554           2.960e+00     
-172.000         -90.000            2.540e-02           1.949e-02              18.851           5.903e-03              53.875           3.866e+00     
-171.000         -90.000            1.221e-02           7.179e-03              33.282           5.027e-03              38.912           2.066e+01     
-170.000         -90.000            6.816e-03           2.226e-03              87.872           4.590e-03              22.386           1.783e+00     
-169.000         -90.000            1.148e-02           6.940e-03             145.767           4.537e-03               5.453           2.852e+00     
-168.000         -90.000            2.498e-02           2.020e-02             161.440           4.779e-03             349.147           1.891e+01     
-167.000         -90.000            4.307e-02           3.785e-02             167.636           5.212e-03             333.935           1.287e+01     
-166.000         -90.000            5.990e-02           5.415e-02             171.239           5.745e-03             319.774           6.348e+00     
-165.000         -90.000            7.015e-02           6.385e-02             174.144           6.307e-03             306.377           4.499e+00     
-164.000         -90.000            7.078e-02           6.392e-02             177.257           6.863e-03             293.443           3.479e+00     
-163.000         -90.000            6.208e-02           5.467e-02             181.440           7.409e-03             280.755           2.764e+00     
