Theta [deg.]  Phi   [deg.]  Abs(Dir.)[      ]   Abs(Theta)[      ]  Phase(Theta)[deg.]  Abs(Phi  )[      ]  Phase(Phi  )[deg.]  Ax.Ratio[      ]    
------------------------------------------------------------------------------------------------------------------------------------------------------
-180.000         -90.000            1.417e-02           7.775e-08             285.287           1.417e-02              32.622           3.162e+02     
-179.000         -90.000            1.676e-02           3.044e-03              89.607           1.372e-02              31.853           2.696e+00     
-178.000         -90.000            2.379e-02           1.134e-02              89.871           1.245e-02              29.475           1.722e+00     
-177.000         -90.000            3.306e-02           2.246e-02              90.294           1.060e-02              25.168           1.809e+00     
-176.000         -90.000            4.165e-02           3.316e-02              90.952           8.493e-03              18.321           2.131e+00     
-175.000         -90.000            4.685e-02           4.033e-02              91.951           6.525e-03               7.959           2.505e+00     
-174.000         -90.000            4.698e-02           4.191e-02              93.473           5.068e-03             352.972           2.938e+00     
-173.000         -90.000            4.195e-02           3.754e-02              95.865           4.414e-03             333.396           3.584e+00     
-172.000         -90.000            3.335e-02           2.862e-02              99.844           4.735e-03             312.260           5.151e+00     
-171.000         -90.000            2.400e-02           1.795e-02             107.144           6.053e-03             293.771           1.990e+01     
-170.000         -90.000            1.718e-02           8.930e-03             122.695           8.247e-03             279.401           4.855e+00     
-169.000         -90.000            1.564e-02           4.561e-03             158.643           1.108e-02             268.350           1.773e+00     
-168.000         -90.000            2.082e-02           6.588e-03             203.945           1.423e-02             259.442           2.142e+00     
-167.000         -90.000            3.236e-02           1.498e-02             226.748           1.738e-02             251.792           4.516e+00     
-166.000         -90.000            4.814e-02           2.792e-02             237.070           2.022e-02             244.817           1.496e+01     
-165.000         -90.000            6.481e-02           4.230e-02             242.811           2.251e-02             238.137           2.573e+01     
-164.000         -90.000            7.866e-02           5.454e-02             246.719           2.412e-02             231.499           8.138e+00     
-163.000         -90.000            8.661e-02           6.160e-02             250.008           2.501e-02             224.730           4.966e+00     
