Theta [deg.]  Phi   [deg.]  Abs(Dir.)[      ]   Abs(Theta)[      ]  Phase(Theta)[deg.]  Abs(Phi  )[      ]  Phase(Phi  )[deg.]  Ax.Ratio[      ]    
------------------------------------------------------------------------------------------------------------------------------------------------------
-180.000         -90.000            2.276e-03           2.628e-07             266.688           2.275e-03             219.480           1.268e+02     
-179.000         -90.000            4.429e-03           2.132e-03             261.836           2.298e-03             218.696           2.532e+00     
-178.000         -90.000            9.467e-03           7.102e-03             261.977           2.366e-03             216.432           2.890e+00     
-177.000         -90.000            1.426e-02           1.179e-02             262.312           2.473e-03             212.805           3.156e+00     
-176.000         -90.000            1.586e-02           1.325e-02             262.967           2.607e-03             207.962           2.955e+00     
-175.000         -90.000            1.335e-02           1.060e-02             264.286           2.752e-03             202.039           2.372e+00     
-174.000         -90.000            8.401e-03           5.515e-03             267.392           2.887e-03             195.130           1.576e+00     
-173.000         -90.000            4.191e-03           1.198e-03             279.161           2.993e-03             187.282           1.582e+00     
-172.000         -90.000            3.398e-03           3.432e-04              36.643           3.055e-03             178.498           5.180e+00     
-171.000         -90.000            6.528e-03           3.464e-03              67.234           3.064e-03             168.751           1.236e+00     
-170.000         -90.000            1.163e-02           8.611e-03              72.917           3.022e-03             157.997           1.701e+00     
-169.000         -90.000            1.557e-02           1.263e-02              76.297           2.940e-03             146.199           2.283e+00     
-168.000         -90.000            1.597e-02           1.314e-02              80.059           2.837e-03             133.369           2.921e+00     
-167.000         -90.000            1.274e-02           1.000e-02              86.199           2.735e-03             119.603           4.185e+00     
-166.000         -90.000            8.034e-03           5.385e-03              99.298           2.649e-03             105.121           2.092e+01     
-165.000         -90.000            4.962e-03           2.379e-03             133.481           2.583e-03              90.247           2.526e+00     
-164.000         -90.000            5.628e-03           3.106e-03             185.671           2.523e-03              75.329           1.459e+00     
-163.000         -90.000            9.872e-03           7.436e-03             210.886           2.436e-03              60.583           4.458e+00     
