Theta [deg.]  Phi   [deg.]  Abs(Dir.)[      ]   Abs(Theta)[      ]  Phase(Theta)[deg.]  Abs(Phi  )[      ]  Phase(Phi  )[deg.]  Ax.Ratio[      ]    
------------------------------------------------------------------------------------------------------------------------------------------------------
-180.000         -90.000            1.368e-02           2.135e-07              83.864           1.368e-02             174.520           2.532e+02     
-179.000         -90.000            1.766e-02           4.198e-03             166.015           1.346e-02             173.915           1.703e+01     
-178.000         -90.000            2.786e-02           1.502e-02             166.457           1.284e-02             172.051           2.053e+01     
-177.000         -90.000            3.982e-02           2.793e-02             166.974           1.189e-02             168.890           6.534e+01     
-176.000         -90.000            4.826e-02           3.754e-02             167.765           1.072e-02             164.375           4.066e+01     
-175.000         -90.000            4.928e-02           3.983e-02             169.056           9.449e-03             158.444           1.372e+01     
-174.000         -90.000            4.207e-02           3.389e-02             171.294           8.189e-03             151.040           7.156e+00     
-173.000         -90.000            2.933e-02           2.230e-02             175.603           7.031e-03             142.137           3.998e+00     
-172.000         -90.000            1.617e-02           1.014e-02             185.789           6.030e-03             131.774           2.073e+00     
-171.000         -90.000            8.106e-03           2.898e-03             220.591           5.209e-03             120.052           1.416e+00     
-170.000         -90.000            8.772e-03           4.210e-03             290.808           4.561e-03             107.132           3.119e+01     
-169.000         -90.000            1.843e-02           1.436e-02             315.376           4.068e-03              93.196           3.287e+00     
-168.000         -90.000            3.381e-02           3.011e-02             323.735           3.704e-03              78.399           3.212e+00     
-167.000         -90.000            4.936e-02           4.590e-02             328.081           3.453e-03              62.862           3.661e+00     
-166.000         -90.000            5.943e-02           5.611e-02             331.265           3.312e-03              46.706           4.269e+00     
-165.000         -90.000            6.043e-02           5.714e-02             334.456           3.287e-03              30.134           5.145e+00     
-164.000         -90.000            5.224e-02           4.885e-02             338.628           3.390e-03              13.471           6.962e+00     
-163.000         -90.000            3.823e-02           3.460e-02             345.304           3.632e-03             357.136           1.657e+01     
