Theta [deg.]  Phi   [deg.]  Abs(Dir.)[      ]   Abs(Theta)[      ]  Phase(Theta)[deg.]  Abs(Phi  )[      ]  Phase(Phi  )[deg.]  Ax.Ratio[      ]    
------------------------------------------------------------------------------------------------------------------------------------------------------
-180.000         -90.000            1.323e-03           2.718e-07             352.022           1.323e-03             267.299           7.005e+01     
-179.000         -90.000            2.789e-03           1.407e-03              65.653           1.382e-03             267.359           5.216e+00     
-178.000         -90.000            6.183e-03           4.629e-03              66.106           1.555e-03             267.414           6.182e+00     
-177.000         -90.000            9.240e-03           7.417e-03              66.394           1.822e-03             266.887           7.036e+00     
-176.000         -90.000            9.960e-03           7.815e-03              66.825           2.145e-03             265.172           7.597e+00     
-175.000         -90.000            7.986e-03           5.526e-03              67.778           2.460e-03             261.769           8.846e+00     
-174.000         -90.000            4.855e-03           2.149e-03              70.671           2.706e-03             256.264           2.061e+01     
-173.000         -90.000            2.964e-03           1.121e-04              97.856           2.852e-03             248.269           1.052e+01     
-172.000         -90.000            3.935e-03           1.005e-03             232.526           2.931e-03             237.502           2.640e+01     
-171.000         -90.000            7.492e-03           4.461e-03             238.676           3.032e-03             224.053           7.945e+00     
-170.000         -90.000            1.161e-02           8.346e-03             240.910           3.267e-03             208.716           3.919e+00     
-169.000         -90.000            1.388e-02           1.016e-02             242.997           3.715e-03             192.880           2.551e+00     
-168.000         -90.000            1.309e-02           8.722e-03             246.353           4.366e-03             177.799           1.685e+00     
-167.000         -90.000            1.014e-02           5.022e-03             253.714           5.114e-03             163.975           1.010e+00     
-166.000         -90.000            7.434e-03           1.648e-03             276.807           5.787e-03             151.252           2.570e+00     
-165.000         -90.000            7.335e-03           1.125e-03             348.064           6.210e-03             139.178           5.565e+00     
-164.000         -90.000            1.051e-02           4.243e-03              24.447           6.266e-03             127.267           1.349e+00     
-163.000         -90.000            1.539e-02           9.459e-03              35.544           5.931e-03             115.065           1.347e+00     
