Theta [deg.]  Phi   [deg.]  Abs(Dir.)[      ]   Abs(Theta)[      ]  Phase(Theta)[deg.]  Abs(Phi  )[      ]  Phase(Phi  )[deg.]  Ax.Ratio[      ]    
------------------------------------------------------------------------------------------------------------------------------------------------------
-180.000         -90.000            6.158e-03           1.690e-07             122.800           6.158e-03             217.122           1.915e+02     
-179.000         -90.000            1.025e-02           4.293e-03              89.261           5.956e-03             216.073           2.042e+00     
-178.000         -90.000            2.157e-02           1.617e-02              89.301           5.400e-03             212.740           2.339e+00     
-177.000         -90.000            3.775e-02           3.313e-02              89.482           4.623e-03             206.608           3.105e+00     
-176.000         -90.000            5.542e-02           5.159e-02              89.789           3.825e-03             196.810           3.867e+00     
-175.000         -90.000            7.095e-02           6.770e-02              90.249           3.244e-03             182.480           4.572e+00     
-174.000         -90.000            8.123e-02           7.811e-02              90.917           3.120e-03             164.113           5.245e+00     
-173.000         -90.000            8.435e-02           8.070e-02              91.883           3.659e-03             144.902           5.978e+00     
-172.000         -90.000            8.002e-02           7.502e-02              93.305           5.003e-03             128.521           7.021e+00     
-171.000         -90.000            6.960e-02           6.239e-02              95.472           7.208e-03             116.058           9.226e+00     
-170.000         -90.000            5.581e-02           4.558e-02              98.956           1.023e-02             106.748           1.901e+01     
-169.000         -90.000            4.215e-02           2.823e-02             105.106           1.393e-02              99.560           2.195e+01     
-168.000         -90.000            3.217e-02           1.409e-02             117.624           1.807e-02              93.720           4.764e+00     
-167.000         -90.000            2.863e-02           6.243e-03             147.242           2.239e-02              88.721           2.428e+00     
-166.000         -90.000            3.301e-02           6.456e-03             195.806           2.656e-02              84.237           2.271e+00     
-165.000         -90.000            4.513e-02           1.486e-02             224.554           3.027e-02              80.051           3.368e+00     
-164.000         -90.000            6.316e-02           2.991e-02             236.992           3.325e-02              76.016           5.977e+00     
-163.000         -90.000            8.406e-02           4.877e-02             243.509           3.530e-02              72.022           1.361e+01     
