Theta [deg.]  Phi   [deg.]  Abs(Dir.)[      ]   Abs(Theta)[      ]  Phase(Theta)[deg.]  Abs(Phi  )[      ]  Phase(Phi  )[deg.]  Ax.Ratio[      ]    
------------------------------------------------------------------------------------------------------------------------------------------------------
-180.000         -90.000            1.195e-02           2.014e-07             357.573           1.195e-02              77.886           2.470e+02     
-179.000         -90.000            1.566e-02           3.889e-03              97.012           1.177e-02              77.256           6.699e+00     
-178.000         -90.000            2.518e-02           1.389e-02              97.471           1.129e-02              75.330           5.141e+00     
-177.000         -90.000            3.622e-02           2.567e-02              98.021           1.055e-02              72.092           4.826e+00     
-176.000         -90.000            4.378e-02           3.414e-02              98.873           9.641e-03              67.524           4.412e+00     
-175.000         -90.000            4.428e-02           3.564e-02             100.279           8.646e-03              61.617           3.773e+00     
-174.000         -90.000            3.722e-02           2.957e-02             102.759           7.648e-03              54.385           2.975e+00     
-173.000         -90.000            2.539e-02           1.868e-02             107.661           6.708e-03              45.871           2.097e+00     
-172.000         -90.000            1.377e-02           7.910e-03             119.837           5.858e-03              36.154           1.205e+00     
-171.000         -90.000            7.452e-03           2.340e-03             163.126           5.111e-03              25.320           2.858e+00     
-170.000         -90.000            9.463e-03           5.000e-03             227.944           4.464e-03              13.432           3.226e+00     
-169.000         -90.000            1.947e-02           1.556e-02             247.880           3.909e-03               0.502           2.263e+00     
-168.000         -90.000            3.388e-02           3.043e-02             255.243           3.443e-03             346.478           2.974e+00     
-167.000         -90.000            4.723e-02           4.416e-02             259.318           3.073e-03             331.291           4.015e+00     
-166.000         -90.000            5.447e-02           5.166e-02             262.498           2.814e-03             314.952           5.517e+00     
-165.000         -90.000            5.293e-02           5.024e-02             265.902           2.684e-03             297.703           8.532e+00     
-164.000         -90.000            4.339e-02           4.069e-02             270.629           2.698e-03             280.067           2.521e+01     
-163.000         -90.000            2.978e-02           2.692e-02             278.638           2.859e-03             262.734           1.231e+01     
