Theta [deg.]  Phi   [deg.]  Abs(Dir.)[      ]   Abs(Theta)[      ]  Phase(Theta)[deg.]  Abs(Phi  )[      ]  Phase(Phi  )[deg.]  Ax.Ratio[      ]    
------------------------------------------------------------------------------------------------------------------------------------------------------
-180.000         -90.000            1.012e-04           5.255e-07             188.115           1.007e-04             290.633           1.418e+01     
-179.000         -90.000            2.442e-03           2.345e-03              76.602           9.709e-05             283.165           1.136e+01     
-178.000         -90.000            7.884e-03           7.782e-03              76.677           1.028e-04             262.184           9.187e+01     
-177.000         -90.000            1.265e-02           1.250e-02              77.539           1.486e-04             237.220           2.669e+01     
-176.000         -90.000            1.344e-02           1.320e-02              79.423           2.427e-04             217.735           1.120e+01     
-175.000         -90.000            9.778e-03           9.429e-03              83.504           3.491e-04             202.710           6.008e+00     
-174.000         -90.000            4.371e-03           3.962e-03              94.555           4.092e-04             187.978           3.118e+00     
-173.000         -90.000            1.303e-03           9.045e-04             144.065           3.986e-04             169.037           4.938e+00     
-172.000         -90.000            3.241e-03           2.861e-03             215.453           3.805e-04             141.206           2.881e+00     
-171.000         -90.000            9.591e-03           9.081e-03             231.972           5.098e-04             107.088           5.243e+00     
-170.000         -90.000            1.684e-02           1.587e-02             238.384           9.672e-04              79.375           1.191e+01     
-169.000         -90.000            2.088e-02           1.903e-02             242.892           1.854e-03              60.888           1.005e+02     
-168.000         -90.000            1.972e-02           1.661e-02             248.144           3.111e-03              47.637           7.702e+00     
-167.000         -90.000            1.483e-02           1.032e-02             257.315           4.513e-03              36.656           3.003e+00     
-166.000         -90.000            1.014e-02           4.378e-03             279.758           5.762e-03              26.306           1.383e+00     
-165.000         -90.000            9.476e-03           2.855e-03             333.539           6.621e-03              15.612           2.909e+00     
-164.000         -90.000            1.403e-02           7.018e-03              12.816           7.014e-03               3.980           1.294e+01     
-163.000         -90.000            2.156e-02           1.453e-02              27.656           7.034e-03             351.126           3.278e+00     
