Theta [deg.]  Phi   [deg.]  Abs(Dir.)[      ]   Abs(Theta)[      ]  Phase(Theta)[deg.]  Abs(Phi  )[      ]  Phase(Phi  )[deg.]  Ax.Ratio[      ]    
------------------------------------------------------------------------------------------------------------------------------------------------------
-180.000         -90.000            3.670e-03           3.338e-08             256.411           3.670e-03             181.614           3.162e+02     
-179.000         -90.000            6.419e-03           2.781e-03             170.109           3.639e-03             180.958           1.063e+01     
-178.000         -90.000            1.356e-02           1.001e-02             170.236           3.552e-03             179.020           1.483e+01     
-177.000         -90.000            2.223e-02           1.881e-02             170.632           3.421e-03             175.838           3.051e+01     
-176.000         -90.000            2.894e-02           2.568e-02             171.346           3.259e-03             171.485           3.162e+02     
-175.000         -90.000            3.098e-02           2.790e-02             172.563           3.082e-03             166.071           2.952e+01     
-174.000         -90.000            2.753e-02           2.463e-02             174.684           2.898e-03             159.749           1.256e+01     
-173.000         -90.000            1.997e-02           1.726e-02             178.671           2.712e-03             152.689           6.510e+00     
-172.000         -90.000            1.140e-02           8.879e-03             187.453           2.519e-03             145.063           3.269e+00     
-171.000         -90.000            5.365e-03           3.053e-03             213.052           2.312e-03             136.989           1.327e+00     
-170.000         -90.000            4.524e-03           2.442e-03             276.238           2.082e-03             128.508           3.470e+00     
-169.000         -90.000            9.563e-03           7.740e-03             310.088           1.823e-03             119.544           1.384e+01     
-168.000         -90.000            1.892e-02           1.738e-02             321.199           1.540e-03             109.869           6.888e+00     
-167.000         -90.000            2.936e-02           2.811e-02             326.298           1.245e-03              99.049           6.607e+00     
-166.000         -90.000            3.718e-02           3.622e-02             329.435           9.596e-04              86.344           6.928e+00     
-165.000         -90.000            3.960e-02           3.888e-02             332.012           7.142e-04              70.606           7.466e+00     
-164.000         -90.000            3.578e-02           3.524e-02             334.878           5.399e-04              50.451           8.350e+00     
-163.000         -90.000            2.712e-02           2.665e-02             339.031           4.644e-04              25.689           1.050e+01     
