Theta [deg.]  Phi   [deg.]  Abs(Dir.)[      ]   Abs(Theta)[      ]  Phase(Theta)[deg.]  Abs(Phi  )[      ]  Phase(Phi  )[deg.]  Ax.Ratio[      ]    
------------------------------------------------------------------------------------------------------------------------------------------------------
-180.000         -90.000            4.552e-03           3.292e-08             332.387           4.552e-03             279.093           3.162e+02     
-179.000         -90.000            7.603e-03           3.095e-03             241.942           4.508e-03             278.477           3.096e+00     
-178.000         -90.000            1.558e-02           1.119e-02             242.051           4.385e-03             276.645           3.642e+00     
-177.000         -90.000            2.540e-02           2.120e-02             242.404           4.197e-03             273.618           4.995e+00     
-176.000         -90.000            3.326e-02           2.929e-02             243.041           3.965e-03             269.435           6.795e+00     
-175.000         -90.000            3.610e-02           3.240e-02             244.116           3.707e-03             264.170           9.503e+00     
-174.000         -90.000            3.281e-02           2.937e-02             245.964           3.440e-03             257.932           1.568e+01     
-173.000         -90.000            2.464e-02           2.146e-02             249.353           3.175e-03             250.857           1.137e+02     
-172.000         -90.000            1.473e-02           1.182e-02             256.492           2.913e-03             243.104           1.075e+01     
-171.000         -90.000            6.995e-03           4.347e-03             275.939           2.648e-03             234.804           2.774e+00     
-170.000         -90.000            4.572e-03           2.200e-03             333.980           2.372e-03             226.030           1.378e+00     
-169.000         -90.000            8.682e-03           6.605e-03              18.001           2.078e-03             216.754           7.151e+00     
-168.000         -90.000            1.815e-02           1.638e-02              31.807           1.763e-03             206.801           3.867e+01     
-167.000         -90.000            2.980e-02           2.836e-02              37.676           1.438e-03             195.790           1.244e+01     
-166.000         -90.000            3.965e-02           3.853e-02              41.057           1.122e-03             183.028           9.688e+00     
-165.000         -90.000            4.432e-02           4.347e-02              43.635           8.443e-04             167.405           8.685e+00     
-164.000         -90.000            4.221e-02           4.157e-02              46.282           6.418e-04             147.496           8.210e+00     
-163.000         -90.000            3.413e-02           3.358e-02              49.838           5.499e-04             122.859           8.182e+00     
