Theta [deg.]  Phi   [deg.]  Abs(Dir.)[      ]   Abs(Theta)[      ]  Phase(Theta)[deg.]  Abs(Phi  )[      ]  Phase(Phi  )[deg.]  Ax.Ratio[      ]    
------------------------------------------------------------------------------------------------------------------------------------------------------
-180.000         -90.000            6.429e-03           3.499e-08             121.809           6.429e-03             112.252           3.162e+02     
-179.000         -90.000            1.026e-02           3.906e-03              24.491           6.354e-03             111.662           1.282e+00     
-178.000         -90.000            2.041e-02           1.426e-02              24.574           6.145e-03             109.880           1.536e+00     
-177.000         -90.000            3.326e-02           2.744e-02              24.861           5.826e-03             106.902           2.203e+00     
-176.000         -90.000            4.426e-02           3.883e-02              25.375           5.428e-03             102.725           2.762e+00     
-175.000         -90.000            4.948e-02           4.449e-02              26.228           4.991e-03              97.367           3.196e+00     
-174.000         -90.000            4.704e-02           4.249e-02              27.647           4.546e-03              90.876           3.505e+00     
-173.000         -90.000            3.775e-02           3.363e-02              30.121           4.120e-03              83.338           3.736e+00     
-172.000         -90.000            2.484e-02           2.112e-02              34.890           3.727e-03              74.892           4.114e+00     
-171.000         -90.000            1.287e-02           9.502e-03              46.016           3.365e-03              65.686           6.609e+00     
-170.000         -90.000            6.064e-03           3.036e-03              81.113           3.028e-03              55.856           4.463e+00     
-169.000         -90.000            6.935e-03           4.235e-03             144.893           2.700e-03              45.461           1.323e+00     
-168.000         -90.000            1.538e-02           1.301e-02             169.722           2.369e-03              34.434           3.664e+00     
-167.000         -90.000            2.873e-02           2.670e-02             178.536           2.033e-03              22.526           9.487e+00     
-166.000         -90.000            4.268e-02           4.098e-02             182.958           1.702e-03               9.257           4.656e+01     
-165.000         -90.000            5.275e-02           5.135e-02             185.916           1.403e-03             353.907           2.984e+01     
-164.000         -90.000            5.574e-02           5.457e-02             188.526           1.174e-03             335.682           1.276e+01     
-163.000         -90.000            5.083e-02           4.977e-02             191.537           1.066e-03             314.424           8.190e+00     
