Theta [deg.]  Phi   [deg.]  Abs(Dir.)[      ]   Abs(Theta)[      ]  Phase(Theta)[deg.]  Abs(Phi  )[      ]  Phase(Phi  )[deg.]  Ax.Ratio[      ]    
------------------------------------------------------------------------------------------------------------------------------------------------------
-180.000         -90.000            3.894e-03           1.030e-08              25.365           3.894e-03             112.745           3.162e+02     
-179.000         -90.000            6.496e-03           2.589e-03             351.556           3.907e-03             111.937           1.817e+00     
-178.000         -90.000            1.387e-02           9.910e-03             351.687           3.956e-03             109.529           2.006e+00     
-177.000         -90.000            2.481e-02           2.075e-02             351.934           4.064e-03             105.638           2.561e+00     
-176.000         -90.000            3.757e-02           3.331e-02             352.308           4.262e-03             100.484           2.984e+00     
-175.000         -90.000            5.012e-02           4.552e-02             352.838           4.593e-03              94.397           3.228e+00     
-174.000         -90.000            6.051e-02           5.541e-02             353.566           5.098e-03              87.783           3.308e+00     
-173.000         -90.000            6.722e-02           6.141e-02             354.560           5.815e-03              81.051           3.257e+00     
-172.000         -90.000            6.937e-02           6.260e-02             355.919           6.772e-03              74.531           3.116e+00     
-171.000         -90.000            6.690e-02           5.893e-02             357.804           7.978e-03              68.429           2.930e+00     
-170.000         -90.000            6.055e-02           5.112e-02               0.479           9.427e-03              62.834           2.750e+00     
-169.000         -90.000            5.170e-02           4.061e-02               4.418           1.109e-02              57.744           2.662e+00     
-168.000         -90.000            4.216e-02           2.926e-02              10.505           1.290e-02              53.110           2.855e+00     
-167.000         -90.000            3.385e-02           1.904e-02              20.502           1.481e-02              48.859           3.994e+00     
-166.000         -90.000            2.846e-02           1.175e-02              37.706           1.671e-02              44.912           1.613e+01     
-165.000         -90.000            2.718e-02           8.668e-03              64.933           1.851e-02              41.197           5.136e+00     
-164.000         -90.000            3.050e-02           1.038e-02              94.473           2.012e-02              37.645           2.028e+00     
-163.000         -90.000            3.814e-02           1.671e-02             115.019           2.144e-02              34.196           1.226e+00     
