Theta [deg.]  Phi   [deg.]  Abs(Dir.)[      ]   Abs(Theta)[      ]  Phase(Theta)[deg.]  Abs(Phi  )[      ]  Phase(Phi  )[deg.]  Ax.Ratio[      ]    
------------------------------------------------------------------------------------------------------------------------------------------------------
-180.000         -90.000            1.311e-03           1.593e-06              13.541           1.310e-03             283.523           2.867e+01     
-179.000         -90.000            8.669e-03           7.349e-03             214.411           1.320e-03             283.492           2.594e+00     
-178.000         -90.000            2.647e-02           2.512e-02             214.602           1.347e-03             283.274           4.671e+00     
-177.000         -90.000            4.347e-02           4.209e-02             215.232           1.379e-03             282.730           6.008e+00     
-176.000         -90.000            4.897e-02           4.757e-02             216.489           1.402e-03             281.678           6.451e+00     
-175.000         -90.000            3.961e-02           3.822e-02             219.012           1.397e-03             279.932           6.039e+00     
-174.000         -90.000            2.149e-02           2.014e-02             224.932           1.345e-03             277.312           5.012e+00     
-173.000         -90.000            6.366e-03           5.126e-03             246.043           1.239e-03             273.648           5.260e+00     
-172.000         -90.000            4.260e-03           3.180e-03             334.535           1.080e-03             268.749           2.027e+00     
-171.000         -90.000            1.717e-02           1.628e-02               7.807           8.823e-04             262.364           4.475e+00     
-170.000         -90.000            3.778e-02           3.711e-02              16.280           6.688e-04             254.116           8.845e+00     
-169.000         -90.000            5.402e-02           5.355e-02              20.747           4.658e-04             243.376           1.591e+01     
-168.000         -90.000            5.646e-02           5.616e-02              24.784           2.962e-04             228.989           3.373e+01     
-167.000         -90.000            4.406e-02           4.388e-02              30.410           1.748e-04             208.803           3.162e+02     
-166.000         -90.000            2.468e-02           2.458e-02              41.272           1.069e-04             179.763           2.294e+01     
-165.000         -90.000            1.015e-02           1.006e-02              68.870           8.919e-05             142.939           1.105e+01     
-164.000         -90.000            8.958e-03           8.845e-03             123.398           1.123e-04             108.656           3.529e+01     
-163.000         -90.000            2.126e-02           2.109e-02             155.652           1.628e-04              82.420           1.190e+01     
