Theta [deg.]  Phi   [deg.]  Abs(Dir.)[      ]   Abs(Theta)[      ]  Phase(Theta)[deg.]  Abs(Phi  )[      ]  Phase(Phi  )[deg.]  Ax.Ratio[      ]    
------------------------------------------------------------------------------------------------------------------------------------------------------
-180.000         -90.000            6.175e-04           1.046e-06             229.645           6.165e-04             183.684           3.380e+01     
-179.000         -90.000            4.163e-03           3.537e-03             319.794           6.257e-04             184.551           3.704e+00     
-178.000         -90.000            1.298e-02           1.233e-02             320.570           6.534e-04             186.946           6.156e+00     
-177.000         -90.000            2.255e-02           2.185e-02             321.272           7.028e-04             190.303           7.489e+00     
-176.000         -90.000            2.800e-02           2.722e-02             322.292           7.759e-04             193.849           7.648e+00     
-175.000         -90.000            2.661e-02           2.574e-02             324.015           8.696e-04             196.823           6.915e+00     
-174.000         -90.000            1.920e-02           1.823e-02             327.310           9.735e-04             198.649           5.661e+00     
-173.000         -90.000            9.762e-03           8.690e-03             335.033           1.072e-03             198.955           4.383e+00     
-172.000         -90.000            3.314e-03           2.166e-03               2.833           1.147e-03             197.523           8.166e+00     
-171.000         -90.000            3.382e-03           2.194e-03              84.400           1.188e-03             194.189           1.602e+00     
-170.000         -90.000            1.017e-02           8.978e-03             112.356           1.192e-03             188.792           2.847e+00     
-169.000         -90.000            2.046e-02           1.929e-02             120.580           1.171e-03             181.192           4.730e+00     
-168.000         -90.000            2.925e-02           2.810e-02             124.808           1.148e-03             171.386           6.946e+00     
-167.000         -90.000            3.228e-02           3.113e-02             128.185           1.152e-03             159.700           1.021e+01     
-166.000         -90.000            2.818e-02           2.698e-02             132.215           1.208e-03             146.904           1.942e+01     
-165.000         -90.000            1.916e-02           1.783e-02             138.889           1.326e-03             134.029           4.648e+01     
-164.000         -90.000            9.880e-03           8.381e-03             153.646           1.499e-03             121.930           5.106e+00     
-163.000         -90.000            5.223e-03           3.521e-03             194.155           1.702e-03             111.006           1.468e+00     
