Theta [deg.]  Phi   [deg.]  Abs(Dir.)[      ]   Abs(Theta)[      ]  Phase(Theta)[deg.]  Abs(Phi  )[      ]  Phase(Phi  )[deg.]  Ax.Ratio[      ]    
------------------------------------------------------------------------------------------------------------------------------------------------------
-180.000         -90.000            1.044e-03           4.243e-08             152.711           1.044e-03             170.360           3.162e+02     
-179.000         -90.000            4.485e-03           3.441e-03             288.971           1.044e-03             169.905           2.266e+00     
-178.000         -90.000            1.403e-02           1.298e-02             289.212           1.045e-03             168.579           4.188e+00     
-177.000         -90.000            2.742e-02           2.638e-02             289.544           1.047e-03             166.415           6.068e+00     
-176.000         -90.000            4.152e-02           4.048e-02             290.035           1.048e-03             163.465           7.811e+00     
-175.000         -90.000            5.303e-02           5.198e-02             290.753           1.048e-03             159.784           9.410e+00     
-174.000         -90.000            5.929e-02           5.825e-02             291.801           1.045e-03             155.419           1.093e+01     
-173.000         -90.000            5.893e-02           5.789e-02             293.349           1.037e-03             150.394           1.255e+01     
-172.000         -90.000            5.216e-02           5.114e-02             295.698           1.023e-03             144.707           1.481e+01     
-171.000         -90.000            4.075e-02           3.975e-02             299.440           1.002e-03             138.313           1.992e+01     
-170.000         -90.000            2.757e-02           2.660e-02             305.859           9.750e-04             131.133           5.889e+01     
-169.000         -90.000            1.594e-02           1.499e-02             318.083           9.464e-04             123.070           1.627e+01     
-168.000         -90.000            8.816e-03           7.894e-03             343.390           9.220e-04             114.036           4.061e+00     
-167.000         -90.000            8.133e-03           7.223e-03              23.404           9.105e-04             104.018           2.866e+00     
-166.000         -90.000            1.433e-02           1.341e-02              52.836           9.227e-04              93.144           6.135e+00     
-165.000         -90.000            2.626e-02           2.528e-02              67.395           9.703e-04              81.739           2.135e+01     
-164.000         -90.000            4.144e-02           4.038e-02              75.140           1.064e-03              70.295           7.483e+01     
-163.000         -90.000            5.669e-02           5.547e-02              79.978           1.214e-03              59.328           1.954e+01     
