Theta [deg.]  Phi   [deg.]  Abs(Dir.)[      ]   Abs(Theta)[      ]  Phase(Theta)[deg.]  Abs(Phi  )[      ]  Phase(Phi  )[deg.]  Ax.Ratio[      ]    
------------------------------------------------------------------------------------------------------------------------------------------------------
-180.000         -90.000            2.698e-04           1.542e-06              83.971           2.683e-04             353.587           1.319e+01     
-179.000         -90.000            3.894e-03           3.626e-03             204.294           2.683e-04             355.539           8.083e+00     
-178.000         -90.000            1.293e-02           1.266e-02             205.082           2.719e-04               1.009           1.703e+01     
-177.000         -90.000            2.244e-02           2.215e-02             205.784           2.888e-04               8.883           3.048e+01     
-176.000         -90.000            2.724e-02           2.691e-02             206.821           3.281e-04              17.207           5.487e+01     
-175.000         -90.000            2.477e-02           2.437e-02             208.635           3.916e-04              23.960           9.835e+01     
-174.000         -90.000            1.646e-02           1.599e-02             212.315           4.702e-04              27.955           7.897e+01     
-173.000         -90.000            7.038e-03           6.491e-03             221.963           5.469e-04              28.805           1.635e+01     
-172.000         -90.000            1.895e-03           1.291e-03             266.000           6.043e-04              26.455           1.985e+00     
-171.000         -90.000            4.187e-03           3.553e-03             344.455           6.343e-04              20.812           4.482e+00     
-170.000         -90.000            1.309e-02           1.245e-02               1.753           6.449e-04              11.719           2.666e+01     
-169.000         -90.000            2.422e-02           2.356e-02               7.693           6.615e-04             359.265           4.184e+01     
-168.000         -90.000            3.195e-02           3.123e-02              11.216           7.187e-04             344.344           1.485e+01     
-167.000         -90.000            3.239e-02           3.154e-02              14.542           8.483e-04             328.765           8.622e+00     
-166.000         -90.000            2.551e-02           2.445e-02              19.240           1.065e-03             314.316           5.333e+00     
-165.000         -90.000            1.514e-02           1.379e-02              28.361           1.357e-03             301.794           3.195e+00     
-164.000         -90.000            7.027e-03           5.342e-03              52.436           1.685e-03             291.083           2.309e+00     
-163.000         -90.000            5.839e-03           3.845e-03             109.991           1.994e-03             281.694           1.454e+01     
