Theta [deg.]  Phi   [deg.]  Abs(Dir.)[      ]   Abs(Theta)[      ]  Phase(Theta)[deg.]  Abs(Phi  )[      ]  Phase(Phi  )[deg.]  Ax.Ratio[      ]    
------------------------------------------------------------------------------------------------------------------------------------------------------
-180.000         -90.000            1.750e-03           1.159e-06             307.004           1.749e-03             184.455           4.609e+01     
-179.000         -90.000            8.468e-03           6.703e-03             149.079           1.765e-03             184.538           3.994e+00     
-178.000         -90.000            2.452e-02           2.271e-02             149.228           1.808e-03             184.649           6.446e+00     
-177.000         -90.000            3.935e-02           3.749e-02             149.776           1.868e-03             184.621           8.109e+00     
-176.000         -90.000            4.323e-02           4.131e-02             150.920           1.921e-03             184.238           8.720e+00     
-175.000         -90.000            3.362e-02           3.168e-02             153.351           1.943e-03             183.294           8.468e+00     
-174.000         -90.000            1.699e-02           1.508e-02             159.578           1.908e-03             181.612           8.323e+00     
-173.000         -90.000            4.673e-03           2.875e-03             187.160           1.799e-03             179.047           1.449e+01     
-172.000         -90.000            5.579e-03           3.967e-03             285.100           1.612e-03             175.469           1.781e+00     
-171.000         -90.000            2.038e-02           1.901e-02             306.890           1.364e-03             170.739           5.598e+00     
-170.000         -90.000            4.091e-02           3.983e-02             312.962           1.080e-03             164.683           1.178e+01     
-169.000         -90.000            5.522e-02           5.443e-02             316.419           7.955e-04             157.069           2.375e+01     
-168.000         -90.000            5.496e-02           5.442e-02             319.839           5.410e-04             147.546           7.552e+01     
-167.000         -90.000            4.055e-02           4.021e-02             325.069           3.369e-04             135.560           6.667e+01     
-166.000         -90.000            2.083e-02           2.064e-02             336.122           1.907e-04             120.172           1.783e+01     
-165.000         -90.000            7.554e-03           7.456e-03               7.606           9.832e-05              99.739           8.714e+00     
-164.000         -90.000            8.144e-03           8.096e-03              67.450           4.824e-05              71.511           1.840e+02     
-163.000         -90.000            2.128e-02           2.125e-02              95.859           2.661e-05              32.762           3.170e+01     
