Theta [deg.]  Phi   [deg.]  Abs(Dir.)[      ]   Abs(Theta)[      ]  Phase(Theta)[deg.]  Abs(Phi  )[      ]  Phase(Phi  )[deg.]  Ax.Ratio[      ]    
------------------------------------------------------------------------------------------------------------------------------------------------------
-180.000         -90.000            5.336e-04           7.114e-09              36.452           5.336e-04             167.609           3.162e+02     
-179.000         -90.000            3.401e-03           2.868e-03              53.795           5.331e-04             167.269           2.617e+00     
-178.000         -90.000            1.082e-02           1.029e-02              53.992           5.316e-04             166.249           4.790e+00     
-177.000         -90.000            1.978e-02           1.925e-02              54.344           5.286e-04             164.498           6.450e+00     
-176.000         -90.000            2.665e-02           2.612e-02              54.941           5.235e-04             161.938           7.400e+00     
-175.000         -90.000            2.867e-02           2.816e-02              55.943           5.160e-04             158.469           7.574e+00     
-174.000         -90.000            2.509e-02           2.458e-02              57.683           5.066e-04             153.987           7.010e+00     
-173.000         -90.000            1.743e-02           1.693e-02              60.966           4.966e-04             148.395           5.845e+00     
-172.000         -90.000            8.871e-03           8.382e-03              68.280           4.885e-04             141.649           4.345e+00     
-171.000         -90.000            2.940e-03           2.454e-03              91.244           4.857e-04             133.793           3.713e+00     
-170.000         -90.000            2.060e-03           1.569e-03             164.031           4.917e-04             125.006           3.435e+00     
-169.000         -90.000            6.584e-03           6.074e-03             200.292           5.096e-04             115.605           3.470e+00     
-168.000         -90.000            1.466e-02           1.412e-02             210.738           5.407e-04             105.987           5.298e+00     
-167.000         -90.000            2.303e-02           2.244e-02             215.700           5.844e-04              96.529           7.142e+00     
-166.000         -90.000            2.833e-02           2.770e-02             219.209           6.368e-04              87.503           8.925e+00     
-165.000         -90.000            2.852e-02           2.782e-02             222.761           6.918e-04              79.036           1.089e+01     
-164.000         -90.000            2.365e-02           2.290e-02             227.610           7.419e-04              71.138           1.430e+01     
-163.000         -90.000            1.591e-02           1.513e-02             235.925           7.789e-04              63.741           3.405e+01     
