Theta [deg.]  Phi   [deg.]  Abs(Dir.)[      ]   Abs(Theta)[      ]  Phase(Theta)[deg.]  Abs(Phi  )[      ]  Phase(Phi  )[deg.]  Ax.Ratio[      ]    
------------------------------------------------------------------------------------------------------------------------------------------------------
-180.000         -90.000            3.570e-03           2.942e-08             277.605           3.570e-03             300.052           3.162e+02     
-179.000         -90.000            9.998e-03           6.449e-03             267.495           3.548e-03             300.017           3.610e+00     
-178.000         -90.000            2.525e-02           2.176e-02             267.853           3.485e-03             299.871           5.279e+00     
-177.000         -90.000            3.989e-02           3.650e-02             268.583           3.386e-03             299.471           6.842e+00     
-176.000         -90.000            4.487e-02           4.161e-02             269.942           3.259e-03             298.601           7.907e+00     
-175.000         -90.000            3.717e-02           3.407e-02             272.582           3.110e-03             296.999           8.622e+00     
-174.000         -90.000            2.169e-02           1.874e-02             278.552           2.944e-03             294.390           1.060e+01     
-173.000         -90.000            8.165e-03           5.397e-03             298.103           2.767e-03             290.534           1.598e+01     
-172.000         -90.000            5.240e-03           2.654e-03              18.333           2.587e-03             285.252           1.057e+00     
-171.000         -90.000            1.510e-02           1.269e-02              57.550           2.408e-03             278.450           3.916e+00     
-170.000         -90.000            3.214e-02           2.991e-02              67.486           2.239e-03             270.128           1.011e+01     
-169.000         -90.000            4.644e-02           4.435e-02              72.466           2.084e-03             260.365           3.512e+01     
-168.000         -90.000            4.972e-02           4.777e-02              76.697           1.946e-03             249.297           4.001e+01     
-167.000         -90.000            4.037e-02           3.855e-02              82.273           1.826e-03             237.079           1.121e+01     
-166.000         -90.000            2.430e-02           2.258e-02              92.553           1.726e-03             223.888           4.984e+00     
-165.000         -90.000            1.126e-02           9.617e-03             117.581           1.647e-03             209.935           2.420e+00     
-164.000         -90.000            8.939e-03           7.351e-03             169.994           1.587e-03             195.500           5.908e+00     
-163.000         -90.000            1.839e-02           1.685e-02             205.283           1.543e-03             180.913           8.625e+00     
