Theta [deg.]  Phi   [deg.]  Abs(Dir.)[      ]   Abs(Theta)[      ]  Phase(Theta)[deg.]  Abs(Phi  )[      ]  Phase(Phi  )[deg.]  Ax.Ratio[      ]    
------------------------------------------------------------------------------------------------------------------------------------------------------
-180.000         -90.000            2.203e-02           1.422e-08              65.971           2.203e-02             315.996           3.162e+02     
-179.000         -90.000            2.593e-02           3.996e-03             344.352           2.194e-02             315.872           5.631e+00     
-178.000         -90.000            3.694e-02           1.527e-02             344.356           2.166e-02             315.499           3.954e+00     
-177.000         -90.000            5.306e-02           3.184e-02             344.424           2.122e-02             314.875           3.882e+00     
-176.000         -90.000            7.138e-02           5.077e-02             344.549           2.061e-02             314.000           4.098e+00     
-175.000         -90.000            8.858e-02           6.874e-02             344.746           1.985e-02             312.873           4.310e+00     
-174.000         -90.000            1.015e-01           8.258e-02             345.045           1.896e-02             311.492           4.417e+00     
-173.000         -90.000            1.079e-01           8.989e-02             345.493           1.796e-02             309.852           4.378e+00     
-172.000         -90.000            1.063e-01           8.944e-02             346.165           1.688e-02             307.950           4.184e+00     
-171.000         -90.000            9.709e-02           8.135e-02             347.187           1.574e-02             305.779           3.842e+00     
-170.000         -90.000            8.168e-02           6.712e-02             348.781           1.456e-02             303.333           3.370e+00     
-169.000         -90.000            6.268e-02           4.931e-02             351.399           1.337e-02             300.596           2.792e+00     
-168.000         -90.000            4.334e-02           3.115e-02             356.043           1.219e-02             297.563           2.142e+00     
-167.000         -90.000            2.697e-02           1.593e-02               5.458           1.105e-02             294.216           1.465e+00     
-166.000         -90.000            1.639e-02           6.434e-03              28.643           9.954e-03             290.540           1.298e+00     
-165.000         -90.000            1.346e-02           4.532e-03              79.088           8.932e-03             286.518           4.365e+00     
-164.000         -90.000            1.881e-02           1.081e-02             115.626           7.993e-03             282.137           8.555e+00     
-163.000         -90.000            3.167e-02           2.452e-02             129.915           7.148e-03             277.389           4.212e+00     
