Theta [deg.]  Phi   [deg.]  Abs(Dir.)[      ]   Abs(Theta)[      ]  Phase(Theta)[deg.]  Abs(Phi  )[      ]  Phase(Phi  )[deg.]  Ax.Ratio[      ]    
------------------------------------------------------------------------------------------------------------------------------------------------------
-180.000         -90.000            7.336e-04           9.742e-09              61.108           7.336e-04             188.834           3.162e+02     
-179.000         -90.000            4.686e-03           3.950e-03             191.700           7.366e-04             188.480           4.889e+01     
-178.000         -90.000            1.474e-02           1.400e-02             191.902           7.440e-04             187.418           5.841e+01     
-177.000         -90.000            2.629e-02           2.554e-02             192.248           7.537e-04             185.649           5.213e+01     
-176.000         -90.000            3.405e-02           3.329e-02             192.849           7.626e-04             183.166           4.015e+01     
-175.000         -90.000            3.450e-02           3.374e-02             193.910           7.671e-04             179.946           2.807e+01     
-174.000         -90.000            2.751e-02           2.674e-02             195.890           7.635e-04             175.941           1.779e+01     
-173.000         -90.000            1.635e-02           1.560e-02             200.078           7.490e-04             171.068           9.760e+00     
-172.000         -90.000            6.226e-03           5.503e-03             211.791           7.227e-04             165.216           4.052e+00     
-171.000         -90.000            1.841e-03           1.155e-03             268.600           6.865e-04             158.267           1.568e+00     
-170.000         -90.000            5.283e-03           4.639e-03             335.745           6.441e-04             150.030           3.066e+01     
-169.000         -90.000            1.508e-02           1.448e-02             349.836           6.021e-04             140.416           1.030e+01     
-168.000         -90.000            2.692e-02           2.635e-02             355.210           5.682e-04             129.435           9.603e+00     
-167.000         -90.000            3.559e-02           3.504e-02             358.622           5.493e-04             117.311           9.137e+00     
-166.000         -90.000            3.737e-02           3.682e-02               1.931           5.502e-04             104.519           8.388e+00     
-165.000         -90.000            3.170e-02           3.112e-02               6.437           5.722e-04              91.685           7.402e+00     
-164.000         -90.000            2.139e-02           2.077e-02              14.265           6.122e-04              79.383           6.455e+00     
-163.000         -90.000            1.140e-02           1.074e-02              30.873           6.636e-04              67.963           6.939e+00     
