Theta [deg.]  Phi   [deg.]  Abs(Dir.)[      ]   Abs(Theta)[      ]  Phase(Theta)[deg.]  Abs(Phi  )[      ]  Phase(Phi  )[deg.]  Ax.Ratio[      ]    
------------------------------------------------------------------------------------------------------------------------------------------------------
-180.000         -90.000            2.162e-03           1.289e-06             169.871           2.161e-03             153.921           1.491e+02     
-179.000         -90.000            8.730e-03           6.563e-03             184.567           2.167e-03             153.292           4.222e+00     
-178.000         -90.000            2.506e-02           2.288e-02             184.867           2.184e-03             151.453           6.279e+00     
-177.000         -90.000            4.362e-02           4.141e-02             185.282           2.211e-03             148.520           7.484e+00     
-176.000         -90.000            5.588e-02           5.364e-02             185.972           2.239e-03             144.657           7.591e+00     
-175.000         -90.000            5.625e-02           5.399e-02             187.173           2.260e-03             140.035           6.799e+00     
-174.000         -90.000            4.468e-02           4.242e-02             189.416           2.260e-03             134.795           5.412e+00     
-173.000         -90.000            2.667e-02           2.444e-02             194.191           2.223e-03             129.025           3.717e+00     
-172.000         -90.000            1.067e-02           8.535e-03             207.702           2.137e-03             122.729           2.011e+00     
-171.000         -90.000            4.236e-03           2.241e-03             267.523           1.995e-03             115.829           3.973e+00     
-170.000         -90.000            1.052e-02           8.722e-03             327.089           1.801e-03             108.158           3.973e+00     
-169.000         -90.000            2.690e-02           2.533e-02             340.833           1.571e-03              99.462           4.643e+00     
-168.000         -90.000            4.616e-02           4.483e-02             346.194           1.328e-03              89.404           5.977e+00     
-167.000         -90.000            5.983e-02           5.872e-02             349.497           1.102e-03              77.641           7.303e+00     
-166.000         -90.000            6.195e-02           6.104e-02             352.556           9.185e-04              63.984           8.613e+00     
-165.000         -90.000            5.182e-02           5.102e-02             356.607           7.919e-04              48.702           1.023e+01     
-164.000         -90.000            3.414e-02           3.342e-02               3.625           7.239e-04              32.729           1.420e+01     
-163.000         -90.000            1.706e-02           1.636e-02              18.959           6.992e-04              17.362           1.810e+02     
