Theta [deg.]  Phi   [deg.]  Abs(Dir.)[      ]   Abs(Theta)[      ]  Phase(Theta)[deg.]  Abs(Phi  )[      ]  Phase(Phi  )[deg.]  Ax.Ratio[      ]    
------------------------------------------------------------------------------------------------------------------------------------------------------
-180.000         -90.000            5.012e-03           3.476e-06             190.542           5.008e-03              45.613           6.609e+01     
-179.000         -90.000            7.491e-03           2.424e-03             332.120           5.067e-03              45.658           1.606e+00     
-178.000         -90.000            1.382e-02           8.581e-03             333.383           5.240e-03              45.738           1.493e+00     
-177.000         -90.000            2.048e-02           1.497e-02             334.741           5.503e-03              45.672           1.845e+00     
-176.000         -90.000            2.385e-02           1.803e-02             336.873           5.815e-03              45.219           2.008e+00     
-175.000         -90.000            2.232e-02           1.620e-02             340.633           6.119e-03              44.134           2.007e+00     
-174.000         -90.000            1.716e-02           1.081e-02             348.089           6.354e-03              42.198           2.074e+00     
-173.000         -90.000            1.169e-02           5.218e-03               5.594           6.468e-03              39.231           3.331e+00     
-172.000         -90.000            9.259e-03           2.824e-03              47.875           6.435e-03              35.091           9.713e+00     
-171.000         -90.000            1.130e-02           5.033e-03              91.062           6.264e-03              29.690           1.706e+00     
-170.000         -90.000            1.647e-02           1.047e-02             109.134           5.996e-03              23.015           1.333e+00     
-169.000         -90.000            2.153e-02           1.585e-02             116.832           5.688e-03              15.176           1.742e+00     
-168.000         -90.000            2.326e-02           1.788e-02             120.877           5.385e-03               6.438           2.136e+00     
-167.000         -90.000            2.035e-02           1.524e-02             123.682           5.107e-03             357.194           2.463e+00     
-166.000         -90.000            1.413e-02           9.290e-03             126.834           4.838e-03             347.874           2.860e+00     
-165.000         -90.000            7.777e-03           3.242e-03             133.842           4.535e-03             338.820           4.585e+00     
-164.000         -90.000            4.450e-03           2.935e-04             182.281           4.156e-03             330.214           7.454e+00     
-163.000         -90.000            5.482e-03           1.803e-03             277.419           3.679e-03             322.061           2.652e+00     
