Theta [deg.]  Phi   [deg.]  Abs(Dir.)[      ]   Abs(Theta)[      ]  Phase(Theta)[deg.]  Abs(Phi  )[      ]  Phase(Phi  )[deg.]  Ax.Ratio[      ]    
------------------------------------------------------------------------------------------------------------------------------------------------------
-180.000         -90.000            1.315e-03           2.363e-09              85.938           1.315e-03             149.462           3.162e+02     
-179.000         -90.000            4.590e-03           3.298e-03             268.724           1.291e-03             149.152           2.075e+00     
-178.000         -90.000            1.370e-02           1.248e-02             268.843           1.224e-03             148.208           3.813e+00     
-177.000         -90.000            2.663e-02           2.552e-02             269.061           1.117e-03             146.563           5.740e+00     
-176.000         -90.000            4.054e-02           3.956e-02             269.404           9.826e-04             144.094           7.841e+00     
-175.000         -90.000            5.237e-02           5.154e-02             269.918           8.315e-04             140.601           1.024e+01     
-174.000         -90.000            5.955e-02           5.888e-02             270.677           6.778e-04             135.776           1.323e+01     
-173.000         -90.000            6.058e-02           6.005e-02             271.803           5.346e-04             129.162           1.756e+01     
-172.000         -90.000            5.532e-02           5.490e-02             273.503           4.142e-04             120.154           2.582e+01     
-171.000         -90.000            4.502e-02           4.470e-02             276.173           3.258e-04             108.155           5.681e+01     
-170.000         -90.000            3.208e-02           3.180e-02             280.615           2.757e-04              93.161           8.348e+01     
-169.000         -90.000            1.945e-02           1.918e-02             288.711           2.669e-04              76.570           1.609e+01     
-168.000         -90.000            1.001e-02           9.707e-03             305.379           2.983e-04              60.885           6.357e+00     
-167.000         -90.000            5.936e-03           5.570e-03             339.964           3.658e-04              47.923           4.251e+00     
-166.000         -90.000            8.245e-03           7.782e-03              19.985           4.628e-04              37.994           1.398e+01     
-165.000         -90.000            1.656e-02           1.598e-02              41.594           5.806e-04              30.590           2.845e+01     
-164.000         -90.000            2.921e-02           2.850e-02              51.955           7.096e-04              25.090           1.430e+01     
-163.000         -90.000            4.363e-02           4.279e-02              57.744           8.406e-04              20.998           1.208e+01     
