Theta [deg.]  Phi   [deg.]  Abs(Dir.)[      ]   Abs(Theta)[      ]  Phase(Theta)[deg.]  Abs(Phi  )[      ]  Phase(Phi  )[deg.]  Ax.Ratio[      ]    
------------------------------------------------------------------------------------------------------------------------------------------------------
-180.000         -90.000            4.331e-03           5.772e-06              30.989           4.326e-03             236.148           6.447e+01     
-179.000         -90.000            5.659e-03           1.250e-03             203.286           4.410e-03             235.958           4.230e+00     
-178.000         -90.000            9.257e-03           4.601e-03             204.246           4.656e-03             235.386           3.589e+00     
-177.000         -90.000            1.318e-02           8.155e-03             205.687           5.027e-03             234.356           4.044e+00     
-176.000         -90.000            1.542e-02           9.959e-03             208.110           5.457e-03             232.753           4.807e+00     
-175.000         -90.000            1.501e-02           9.153e-03             212.347           5.855e-03             230.433           6.449e+00     
-174.000         -90.000            1.255e-02           6.428e-03             220.342           6.123e-03             227.210           1.667e+01     
-173.000         -90.000            9.702e-03           3.522e-03             237.090           6.180e-03             222.850           8.335e+00     
-172.000         -90.000            8.096e-03           2.095e-03             271.210           6.001e-03             217.060           2.401e+00     
-171.000         -90.000            8.365e-03           2.736e-03             309.128           5.629e-03             209.472           1.492e+00     
-170.000         -90.000            9.848e-03           4.665e-03             329.286           5.183e-03             199.778           2.125e+00     
-169.000         -90.000            1.115e-02           6.333e-03             338.639           4.819e-03             187.932           3.867e+00     
-168.000         -90.000            1.113e-02           6.450e-03             343.421           4.675e-03             174.492           1.045e+01     
-167.000         -90.000            9.618e-03           4.800e-03             346.166           4.818e-03             160.667           2.082e+01     
-166.000         -90.000            7.526e-03           2.319e-03             348.155           5.207e-03             147.763           6.051e+00     
-165.000         -90.000            6.129e-03           4.246e-04             351.548           5.704e-03             136.518           6.712e+00     
-164.000         -90.000            6.197e-03           7.714e-05             156.744           6.120e-03             126.980           1.811e+01     
-163.000         -90.000            7.461e-03           1.175e-03             165.321           6.286e-03             118.817           3.498e+00     
