Theta [deg.]  Phi   [deg.]  Abs(Dir.)[      ]   Abs(Theta)[      ]  Phase(Theta)[deg.]  Abs(Phi  )[      ]  Phase(Phi  )[deg.]  Ax.Ratio[      ]    
------------------------------------------------------------------------------------------------------------------------------------------------------
-180.000         -90.000            9.163e-04           1.337e-07              42.270           9.162e-04              19.930           2.178e+02     
-179.000         -90.000            4.332e-03           3.413e-03             103.540           9.187e-04              19.651           1.947e+00     
-178.000         -90.000            1.352e-02           1.259e-02             103.824           9.289e-04              18.731           3.697e+00     
-177.000         -90.000            2.571e-02           2.476e-02             104.108           9.461e-04              17.198           5.124e+00     
-176.000         -90.000            3.725e-02           3.629e-02             104.514           9.692e-04              15.100           6.119e+00     
-175.000         -90.000            4.472e-02           4.372e-02             105.134           9.966e-04              12.497           6.631e+00     
-174.000         -90.000            4.592e-02           4.489e-02             106.110           1.026e-03               9.449           6.662e+00     
-173.000         -90.000            4.057e-02           3.952e-02             107.704           1.054e-03               5.996           6.259e+00     
-172.000         -90.000            3.037e-02           2.929e-02             110.484           1.078e-03               2.206           5.510e+00     
-171.000         -90.000            1.848e-02           1.738e-02             115.890           1.093e-03             358.088           4.573e+00     
-170.000         -90.000            8.549e-03           7.453e-03             128.706           1.096e-03             353.643           3.984e+00     
-169.000         -90.000            3.652e-03           2.568e-03             168.101           1.084e-03             348.846           1.683e+02     
-168.000         -90.000            5.346e-03           4.291e-03             226.974           1.055e-03             343.649           2.394e+00     
-167.000         -90.000            1.324e-02           1.223e-02             249.091           1.010e-03             337.976           3.480e+00     
-166.000         -90.000            2.510e-02           2.415e-02             257.423           9.512e-04             331.743           5.249e+00     
-165.000         -90.000            3.756e-02           3.668e-02             261.738           8.841e-04             324.808           7.261e+00     
-164.000         -90.000            4.711e-02           4.629e-02             264.644           8.143e-04             317.127           9.568e+00     
-163.000         -90.000            5.107e-02           5.032e-02             267.185           7.499e-04             308.627           1.248e+01     
