Theta [deg.]  Phi   [deg.]  Abs(Dir.)[      ]   Abs(Theta)[      ]  Phase(Theta)[deg.]  Abs(Phi  )[      ]  Phase(Phi  )[deg.]  Ax.Ratio[      ]    
------------------------------------------------------------------------------------------------------------------------------------------------------
-180.000         -90.000            4.751e-03           1.364e-07             127.211           4.751e-03             180.715           2.321e+02     
-179.000         -90.000            6.791e-03           2.060e-03              11.273           4.731e-03             180.248           1.129e+01     
-178.000         -90.000            1.252e-02           7.850e-03              11.176           4.671e-03             178.891           9.614e+00     
-177.000         -90.000            2.076e-02           1.618e-02              11.286           4.581e-03             176.658           9.443e+00     
-176.000         -90.000            2.982e-02           2.534e-02              11.530           4.474e-03             173.581           8.976e+00     
-175.000         -90.000            3.785e-02           3.348e-02              11.925           4.368e-03             169.718           8.158e+00     
-174.000         -90.000            4.322e-02           3.894e-02              12.524           4.278e-03             165.157           7.144e+00     
-173.000         -90.000            4.487e-02           4.065e-02              13.417           4.219e-03             160.029           6.061e+00     
-172.000         -90.000            4.253e-02           3.832e-02              14.760           4.201e-03             154.496           4.985e+00     
-171.000         -90.000            3.673e-02           3.251e-02              16.822           4.227e-03             148.744           3.959e+00     
-170.000         -90.000            2.875e-02           2.445e-02              20.161           4.296e-03             142.946           3.003e+00     
-169.000         -90.000            2.027e-02           1.587e-02              25.969           4.398e-03             137.262           2.136e+00     
-168.000         -90.000            1.312e-02           8.595e-03              37.273           4.523e-03             131.810           1.392e+00     
-167.000         -90.000            8.809e-03           4.155e-03              61.950           4.654e-03             126.666           1.584e+00     
-166.000         -90.000            8.291e-03           3.515e-03             104.570           4.776e-03             121.870           6.654e+00     
-165.000         -90.000            1.174e-02           6.866e-03             136.045           4.873e-03             117.435           6.198e+00     
-164.000         -90.000            1.853e-02           1.360e-02             150.706           4.935e-03             113.358           3.439e+00     
-163.000         -90.000            2.739e-02           2.243e-02             158.153           4.952e-03             109.625           3.150e+00     
