Theta [deg.]  Phi   [deg.]  Abs(Dir.)[      ]   Abs(Theta)[      ]  Phase(Theta)[deg.]  Abs(Phi  )[      ]  Phase(Phi  )[deg.]  Ax.Ratio[      ]    
------------------------------------------------------------------------------------------------------------------------------------------------------
-180.000         -90.000            1.762e-02           2.385e-07             306.704           1.762e-02              26.462           2.762e+02     
-179.000         -90.000            1.958e-02           2.108e-03             153.135           1.747e-02              26.201           3.771e+00     
-178.000         -90.000            2.514e-02           8.111e-03             153.095           1.703e-02              25.434           2.260e+00     
-177.000         -90.000            3.320e-02           1.686e-02             153.198           1.634e-02              24.151           2.099e+00     
-176.000         -90.000            4.213e-02           2.670e-02             153.403           1.544e-02              22.328           2.323e+00     
-175.000         -90.000            5.012e-02           3.574e-02             153.728           1.438e-02              19.937           2.691e+00     
-174.000         -90.000            5.552e-02           4.230e-02             154.217           1.322e-02              16.944           3.142e+00     
-173.000         -90.000            5.718e-02           4.514e-02             154.940           1.204e-02              13.313           3.679e+00     
-172.000         -90.000            5.467e-02           4.378e-02             156.016           1.089e-02               9.016           4.368e+00     
-171.000         -90.000            4.835e-02           3.852e-02             157.644           9.824e-03               4.043           5.405e+00     
-170.000         -90.000            3.932e-02           3.044e-02             160.216           8.888e-03             358.409           7.525e+00     
-169.000         -90.000            2.923e-02           2.112e-02             164.524           8.108e-03             352.185           1.669e+01     
-168.000         -90.000            1.993e-02           1.243e-02             172.460           7.499e-03             345.496           1.697e+01     
-167.000         -90.000            1.314e-02           6.080e-03             189.151           7.060e-03             338.526           3.664e+00     
-166.000         -90.000            1.016e-02           3.378e-03             225.018           6.779e-03             331.497           1.581e+00     
-165.000         -90.000            1.158e-02           4.943e-03             266.361           6.636e-03             324.638           1.830e+00     
-164.000         -90.000            1.721e-02           1.061e-02             287.689           6.600e-03             318.147           3.794e+00     
-163.000         -90.000            2.611e-02           1.948e-02             297.651           6.640e-03             312.168           9.051e+00     
