Theta [deg.]  Phi   [deg.]  Abs(Dir.)[      ]   Abs(Theta)[      ]  Phase(Theta)[deg.]  Abs(Phi  )[      ]  Phase(Phi  )[deg.]  Ax.Ratio[      ]    
------------------------------------------------------------------------------------------------------------------------------------------------------
-180.000         -90.000            8.845e-05           2.350e-07              73.191           8.822e-05             215.546           3.177e+01     
-179.000         -90.000            4.324e-03           4.239e-03             219.664           8.497e-05             218.325           3.085e+02     
-178.000         -90.000            1.565e-02           1.557e-02             219.954           7.686e-05             227.151           1.142e+02     
-177.000         -90.000            3.009e-02           3.002e-02             220.316           7.326e-05             242.711           5.324e+01     
-176.000         -90.000            4.263e-02           4.254e-02             220.872           8.758e-05             262.237           3.339e+01     
-175.000         -90.000            4.893e-02           4.879e-02             221.759           1.343e-04             279.064           2.267e+01     
-174.000         -90.000            4.688e-02           4.665e-02             223.219           2.260e-04             289.904           1.566e+01     
-173.000         -90.000            3.736e-02           3.698e-02             225.752           3.709e-04             295.789           1.064e+01     
-172.000         -90.000            2.389e-02           2.332e-02             230.628           5.712e-04             298.315           6.932e+00     
-171.000         -90.000            1.145e-02           1.062e-02             241.921           8.239e-04             298.663           4.400e+00     
-170.000         -90.000            4.652e-03           3.531e-03             276.570           1.121e-03             297.516           6.383e+00     
-169.000         -90.000            6.213e-03           4.760e-03             338.620           1.453e-03             295.295           3.123e+00     
-168.000         -90.000            1.597e-02           1.416e-02               3.842           1.807e-03             292.283           2.993e+00     
-167.000         -90.000            3.092e-02           2.875e-02              12.947           2.172e-03             288.697           3.660e+00     
-166.000         -90.000            4.632e-02           4.379e-02              17.571           2.538e-03             284.716           4.159e+00     
-165.000         -90.000            5.723e-02           5.434e-02              20.715           2.894e-03             280.511           4.411e+00     
-164.000         -90.000            6.023e-02           5.700e-02              23.583           3.228e-03             276.236           4.426e+00     
-163.000         -90.000            5.456e-02           5.103e-02              27.036           3.523e-03             272.038           4.254e+00     
