Theta [deg.]  Phi   [deg.]  Abs(Dir.)[      ]   Abs(Theta)[      ]  Phase(Theta)[deg.]  Abs(Phi  )[      ]  Phase(Phi  )[deg.]  Ax.Ratio[      ]    
------------------------------------------------------------------------------------------------------------------------------------------------------
-180.000         -90.000            4.089e-04           6.733e-07             176.753           4.083e-04             156.101           6.992e+01     
-179.000         -90.000            7.103e-03           6.689e-03             177.363           4.136e-04             155.079           1.117e+01     
-178.000         -90.000            2.399e-02           2.357e-02             177.561           4.265e-04             152.226           1.763e+01     
-177.000         -90.000            4.368e-02           4.323e-02             177.931           4.468e-04             147.776           1.973e+01     
-176.000         -90.000            5.756e-02           5.708e-02             178.582           4.737e-04             141.909           1.848e+01     
-175.000         -90.000            5.962e-02           5.911e-02             179.722           5.060e-04             134.820           1.538e+01     
-174.000         -90.000            4.910e-02           4.855e-02             181.814           5.421e-04             126.668           1.158e+01     
-173.000         -90.000            3.079e-02           3.021e-02             186.087           5.808e-04             117.502           7.767e+00     
-172.000         -90.000            1.298e-02           1.235e-02             197.044           6.225e-04             107.387           4.455e+00     
-171.000         -90.000            3.780e-03           3.111e-03             239.900           6.689e-04              96.391           4.166e+00     
-170.000         -90.000            7.649e-03           6.925e-03             309.970           7.234e-04              84.644           4.587e+00     
-169.000         -90.000            2.343e-02           2.264e-02             329.216           7.899e-04              72.347           5.508e+00     
-168.000         -90.000            4.487e-02           4.399e-02             335.920           8.710e-04              59.720           7.151e+00     
-167.000         -90.000            6.328e-02           6.231e-02             339.555           9.674e-04              47.022           8.709e+00     
-166.000         -90.000            7.127e-02           7.019e-02             342.440           1.076e-03              34.392           1.031e+01     
-165.000         -90.000            6.579e-02           6.460e-02             345.737           1.193e-03              21.874           1.263e+01     
-164.000         -90.000            4.947e-02           4.815e-02             350.783           1.313e-03               9.432           1.940e+01     
-163.000         -90.000            2.941e-02           2.798e-02               0.448           1.434e-03             357.010           7.741e+01     
