Theta [deg.]  Phi   [deg.]  Abs(Dir.)[      ]   Abs(Theta)[      ]  Phase(Theta)[deg.]  Abs(Phi  )[      ]  Phase(Phi  )[deg.]  Ax.Ratio[      ]    
------------------------------------------------------------------------------------------------------------------------------------------------------
-180.000         -90.000            2.354e-02           4.939e-08              95.182           2.354e-02               2.730           3.162e+02     
-179.000         -90.000            2.866e-02           5.467e-03              59.365           2.319e-02               2.393           2.660e+00     
-178.000         -90.000            4.297e-02           2.079e-02              59.361           2.218e-02               1.367           1.806e+00     
-177.000         -90.000            6.367e-02           4.309e-02              59.425           2.059e-02             359.604           1.964e+00     
-176.000         -90.000            8.672e-02           6.816e-02              59.547           1.855e-02             357.015           2.317e+00     
-175.000         -90.000            1.076e-01           9.132e-02              59.748           1.625e-02             353.469           2.676e+00     
-174.000         -90.000            1.221e-01           1.082e-01              60.062           1.387e-02             348.781           2.993e+00     
-173.000         -90.000            1.273e-01           1.157e-01              60.546           1.159e-02             342.714           3.249e+00     
-172.000         -90.000            1.220e-01           1.125e-01              61.297           9.577e-03             335.001           3.435e+00     
-171.000         -90.000            1.071e-01           9.911e-02              62.473           7.966e-03             325.427           3.559e+00     
-170.000         -90.000            8.511e-02           7.827e-02              64.389           6.841e-03             314.010           3.650e+00     
-169.000         -90.000            6.020e-02           5.397e-02              67.699           6.235e-03             301.218           3.820e+00     
-168.000         -90.000            3.705e-02           3.092e-02              74.036           6.129e-03             287.999           4.600e+00     
-167.000         -90.000            2.014e-02           1.368e-02              88.474           6.459e-03             275.428           1.764e+01     
-166.000         -90.000            1.293e-02           5.803e-03             126.854           7.123e-03             264.214           2.581e+00     
-165.000         -90.000            1.721e-02           9.215e-03             177.781           7.997e-03             254.559           1.276e+00     
-164.000         -90.000            3.280e-02           2.385e-02             199.822           8.949e-03             246.318           2.729e+00     
-163.000         -90.000            5.751e-02           4.766e-02             208.763           9.849e-03             239.215           5.039e+00     
