Theta [deg.]  Phi   [deg.]  Abs(Dir.)[      ]   Abs(Theta)[      ]  Phase(Theta)[deg.]  Abs(Phi  )[      ]  Phase(Phi  )[deg.]  Ax.Ratio[      ]    
------------------------------------------------------------------------------------------------------------------------------------------------------
-180.000         -90.000            2.266e-02           4.137e-08             129.468           2.266e-02             194.545           3.162e+02     
-179.000         -90.000            2.876e-02           6.270e-03              58.543           2.249e-02             194.129           3.142e+00     
-178.000         -90.000            4.471e-02           2.272e-02              58.638           2.199e-02             192.871           2.370e+00     
-177.000         -90.000            6.440e-02           4.323e-02              58.930           2.117e-02             190.808           2.451e+00     
-176.000         -90.000            8.026e-02           6.018e-02              59.456           2.008e-02             187.992           2.561e+00     
-175.000         -90.000            8.609e-02           6.735e-02              60.345           1.874e-02             184.492           2.533e+00     
-174.000         -90.000            7.940e-02           6.220e-02              61.863           1.720e-02             180.386           2.335e+00     
-173.000         -90.000            6.231e-02           4.683e-02              64.606           1.548e-02             175.752           1.975e+00     
-172.000         -90.000            4.079e-02           2.717e-02              70.172           1.363e-02             170.660           1.481e+00     
-171.000         -90.000            2.235e-02           1.066e-02              84.387           1.169e-02             165.166           1.183e+00     
-170.000         -90.000            1.327e-02           3.545e-03             132.731           9.729e-03             159.312           4.845e+00     
-169.000         -90.000            1.631e-02           8.500e-03             190.327           7.809e-03             153.124           2.975e+00     
-168.000         -90.000            2.970e-02           2.370e-02             208.218           6.000e-03             146.619           2.418e+00     
-167.000         -90.000            4.792e-02           4.355e-02             215.275           4.370e-03             139.815           3.284e+00     
-166.000         -90.000            6.376e-02           6.079e-02             219.353           2.971e-03             132.756           4.532e+00     
-165.000         -90.000            7.106e-02           6.922e-02             222.665           1.836e-03             125.539           6.190e+00     
-164.000         -90.000            6.698e-02           6.600e-02             226.361           9.808e-04             118.399           8.636e+00     
-163.000         -90.000            5.310e-02           5.269e-02             231.674           4.008e-04             112.043           1.322e+01     
