Theta [deg.]  Phi   [deg.]  Abs(Dir.)[      ]   Abs(Theta)[      ]  Phase(Theta)[deg.]  Abs(Phi  )[      ]  Phase(Phi  )[deg.]  Ax.Ratio[      ]    
------------------------------------------------------------------------------------------------------------------------------------------------------
-180.000         -90.000            1.363e-02           1.355e-08             218.513           1.363e-02             295.889           3.162e+02     
-179.000         -90.000            2.138e-02           8.010e-03             245.077           1.337e-02             295.560           2.230e+00     
-178.000         -90.000            4.249e-02           2.986e-02             245.172           1.263e-02             294.570           2.478e+00     
-177.000         -90.000            7.119e-02           5.972e-02             245.324           1.147e-02             292.876           3.391e+00     
-176.000         -90.000            9.962e-02           8.961e-02             245.568           1.001e-02             290.403           4.496e+00     
-175.000         -90.000            1.200e-01           1.116e-01             245.957           8.374e-03             287.027           5.801e+00     
-174.000         -90.000            1.266e-01           1.199e-01             246.574           6.711e-03             282.565           7.461e+00     
-173.000         -90.000            1.176e-01           1.124e-01             247.568           5.145e-03             276.734           9.930e+00     
-172.000         -90.000            9.502e-02           9.124e-02             249.235           3.777e-03             269.139           1.497e+01     
-171.000         -90.000            6.487e-02           6.220e-02             252.238           2.671e-03             259.194           4.153e+01     
-170.000         -90.000            3.501e-02           3.315e-02             258.404           1.857e-03             246.162           2.100e+01     
-169.000         -90.000            1.331e-02           1.199e-02             274.710           1.323e-03             229.410           4.479e+00     
-168.000         -90.000            5.556e-03           4.521e-03             329.222           1.035e-03             209.163           2.580e+00     
-167.000         -90.000            1.395e-02           1.301e-02              21.085           9.419e-04             187.335           1.671e+01     
-166.000         -90.000            3.658e-02           3.560e-02              36.636           9.869e-04             166.509           7.916e+00     
-165.000         -90.000            6.798e-02           6.686e-02              42.946           1.120e-03             148.011           8.011e+00     
-164.000         -90.000            1.005e-01           9.923e-02              46.503           1.304e-03             131.723           8.753e+00     
-163.000         -90.000            1.265e-01           1.249e-01              49.122           1.519e-03             117.023           9.806e+00     
