Theta [deg.]  Phi   [deg.]  Abs(Dir.)[      ]   Abs(Theta)[      ]  Phase(Theta)[deg.]  Abs(Phi  )[      ]  Phase(Phi  )[deg.]  Ax.Ratio[      ]    
------------------------------------------------------------------------------------------------------------------------------------------------------
-180.000         -90.000            1.088e-02           1.451e-08              35.781           1.088e-02             199.994           3.162e+02     
-179.000         -90.000            1.708e-02           6.372e-03              67.765           1.070e-02             199.617           2.350e+00     
-178.000         -90.000            3.412e-02           2.394e-02              67.923           1.018e-02             198.486           2.473e+00     
-177.000         -90.000            5.791e-02           4.856e-02              68.173           9.353e-03             196.564           3.150e+00     
-176.000         -90.000            8.271e-02           7.441e-02              68.559           8.298e-03             193.787           3.812e+00     
-175.000         -90.000            1.025e-01           9.543e-02              69.135           7.099e-03             190.049           4.362e+00     
-174.000         -90.000            1.126e-01           1.068e-01              69.989           5.848e-03             185.184           4.771e+00     
-173.000         -90.000            1.105e-01           1.059e-01              71.268           4.634e-03             178.936           5.038e+00     
-172.000         -90.000            9.679e-02           9.325e-02              73.234           3.535e-03             170.898           5.186e+00     
-171.000         -90.000            7.465e-02           7.204e-02              76.406           2.612e-03             160.487           5.282e+00     
-170.000         -90.000            4.943e-02           4.752e-02              81.929           1.909e-03             146.894           5.547e+00     
-169.000         -90.000            2.714e-02           2.569e-02              92.755           1.451e-03             129.418           7.309e+00     
-168.000         -90.000            1.314e-02           1.190e-02             117.127           1.244e-03             108.481           2.268e+01     
-167.000         -90.000            1.086e-02           9.582e-03             161.862           1.280e-03              86.621           2.857e+00     
-166.000         -90.000            2.102e-02           1.948e-02             194.973           1.538e-03              66.987           4.658e+00     
-165.000         -90.000            4.149e-02           3.951e-02             209.880           1.983e-03              50.871           1.301e+01     
-164.000         -90.000            6.786e-02           6.529e-02             217.450           2.572e-03              37.869           3.162e+02     
-163.000         -90.000            9.443e-02           9.118e-02             222.154           3.252e-03              27.145           2.113e+01     
