Theta [deg.]  Phi   [deg.]  Abs(Dir.)[      ]   Abs(Theta)[      ]  Phase(Theta)[deg.]  Abs(Phi  )[      ]  Phase(Phi  )[deg.]  Ax.Ratio[      ]    
------------------------------------------------------------------------------------------------------------------------------------------------------
-180.000         -90.000            2.179e-02           4.768e-10             181.406           2.179e-02             112.903           3.162e+02     
-179.000         -90.000            2.845e-02           6.967e-03             238.676           2.149e-02             112.485           2.478e+00     
-178.000         -90.000            4.608e-02           2.547e-02             238.820           2.061e-02             111.214           2.051e+00     
-177.000         -90.000            6.842e-02           4.918e-02             239.085           1.924e-02             109.088           2.504e+00     
-176.000         -90.000            8.747e-02           6.996e-02             239.533           1.751e-02             106.109           3.121e+00     
-175.000         -90.000            9.630e-02           8.075e-02             240.276           1.555e-02             102.286           3.798e+00     
-174.000         -90.000            9.146e-02           7.796e-02             241.527           1.350e-02              97.646           4.563e+00     
-173.000         -90.000            7.415e-02           6.267e-02             243.731           1.149e-02              92.241           5.613e+00     
-172.000         -90.000            4.992e-02           4.035e-02             247.987           9.576e-03              86.156           8.021e+00     
-171.000         -90.000            2.672e-02           1.891e-02             257.769           7.819e-03              79.501           7.272e+01     
-170.000         -90.000            1.224e-02           6.009e-03             288.099           6.227e-03              72.407           3.107e+00     
-169.000         -90.000            1.128e-02           6.480e-03             353.250           4.799e-03              64.997           1.431e+00     
-168.000         -90.000            2.417e-02           2.064e-02              21.628           3.530e-03              57.358           4.634e+00     
-167.000         -90.000            4.664e-02           4.422e-02              31.136           2.422e-03              49.492           1.424e+01     
-166.000         -90.000            7.121e-02           6.972e-02              35.639           1.493e-03              41.223           7.172e+01     
-165.000         -90.000            8.975e-02           8.899e-02              38.482           7.678e-04              31.927           9.510e+01     
-164.000         -90.000            9.612e-02           9.584e-02              40.898           2.766e-04              19.162           5.039e+01     
-163.000         -90.000            8.822e-02           8.818e-02              43.680           4.101e-05             344.331           5.391e+01     
