Theta [deg.]  Phi   [deg.]  Abs(Dir.)[      ]   Abs(Theta)[      ]  Phase(Theta)[deg.]  Abs(Phi  )[      ]  Phase(Phi  )[deg.]  Ax.Ratio[      ]    
------------------------------------------------------------------------------------------------------------------------------------------------------
-180.000         -90.000            2.101e-02           4.409e-09             245.685           2.101e-02             204.672           3.162e+02     
-179.000         -90.000            2.795e-02           7.272e-03             298.739           2.068e-02             204.265           1.697e+00     
-178.000         -90.000            4.638e-02           2.666e-02             298.874           1.972e-02             203.028           1.200e+00     
-177.000         -90.000            6.996e-02           5.173e-02             299.103           1.823e-02             200.944           1.720e+00     
-176.000         -90.000            9.052e-02           7.416e-02             299.489           1.636e-02             197.989           2.197e+00     
-175.000         -90.000            1.008e-01           8.654e-02             300.129           1.427e-02             194.138           2.599e+00     
-174.000         -90.000            9.698e-02           8.484e-02             301.209           1.214e-02             189.376           2.912e+00     
-173.000         -90.000            7.981e-02           6.971e-02             303.106           1.010e-02             183.709           3.133e+00     
-172.000         -90.000            5.461e-02           4.637e-02             306.729           8.235e-03             177.192           3.322e+00     
-171.000         -90.000            2.942e-02           2.283e-02             314.843           6.591e-03             169.921           3.918e+00     
-170.000         -90.000            1.244e-02           7.270e-03             339.423           5.169e-03             162.044           4.435e+01     
-169.000         -90.000            9.329e-03           5.382e-03              45.900           3.948e-03             153.720           1.424e+00     
-168.000         -90.000            2.138e-02           1.848e-02              80.470           2.894e-03             145.068           2.889e+00     
-167.000         -90.000            4.505e-02           4.306e-02              91.092           1.988e-03             136.073           6.739e+00     
-166.000         -90.000            7.311e-02           7.188e-02              95.784           1.227e-03             126.401           1.522e+01     
-165.000         -90.000            9.690e-02           9.627e-02              98.545           6.300e-04             114.867           4.425e+01     
-164.000         -90.000            1.091e-01           1.089e-01             100.700           2.286e-04              96.849           3.162e+02     
-163.000         -90.000            1.059e-01           1.059e-01             102.981           5.573e-05              46.507           5.229e+01     
