Theta [deg.]  Phi   [deg.]  Abs(Dir.)[      ]   Abs(Theta)[      ]  Phase(Theta)[deg.]  Abs(Phi  )[      ]  Phase(Phi  )[deg.]  Ax.Ratio[      ]    
------------------------------------------------------------------------------------------------------------------------------------------------------
-180.000         -90.000            9.649e-03           1.464e-06             215.866           9.647e-03              33.489           3.162e+02     
-179.000         -90.000            1.233e-02           2.416e-03             322.117           9.919e-03              32.602           2.224e+00     
-178.000         -90.000            1.915e-02           8.388e-03             323.124           1.076e-02              30.065           1.542e+00     
-177.000         -90.000            2.680e-02           1.461e-02             323.959           1.218e-02              26.277           1.668e+00     
-176.000         -90.000            3.186e-02           1.767e-02             325.138           1.419e-02              21.713           1.878e+00     
-175.000         -90.000            3.260e-02           1.591e-02             327.140           1.670e-02              16.763           2.164e+00     
-174.000         -90.000            2.987e-02           1.039e-02             331.100           1.949e-02              11.665           2.882e+00     
-173.000         -90.000            2.647e-02           4.226e-03             341.245           2.224e-02               6.519           6.234e+00     
-172.000         -90.000            2.541e-02           8.926e-04              25.097           2.452e-02               1.322           1.340e+01     
-171.000         -90.000            2.814e-02           2.260e-03             101.466           2.588e-02             356.003           3.534e+00     
-170.000         -90.000            3.357e-02           7.597e-03             119.676           2.597e-02             350.449           2.717e+00     
-169.000         -90.000            3.864e-02           1.400e-02             126.275           2.464e-02             344.499           3.033e+00     
-168.000         -90.000            4.002e-02           1.801e-02             130.517           2.201e-02             337.949           4.120e+00     
-167.000         -90.000            3.603e-02           1.755e-02             134.902           1.847e-02             330.533           7.288e+00     
-166.000         -90.000            2.763e-02           1.305e-02             141.511           1.458e-02             321.924           2.774e+02     
-165.000         -90.000            1.806e-02           7.175e-03             154.767           1.088e-02             311.777           5.033e+00     
-164.000         -90.000            1.118e-02           3.387e-03             186.847           7.794e-03             299.868           1.813e+00     
-163.000         -90.000            9.512e-03           4.049e-03             235.693           5.462e-03             286.368           2.149e+00     
