Theta [deg.]  Phi   [deg.]  Abs(Dir.)[      ]   Abs(Theta)[      ]  Phase(Theta)[deg.]  Abs(Phi  )[      ]  Phase(Phi  )[deg.]  Ax.Ratio[      ]    
------------------------------------------------------------------------------------------------------------------------------------------------------
-180.000         -90.000            2.121e-02           4.818e-07             117.492           2.121e-02              87.283           3.162e+02     
-179.000         -90.000            2.672e-02           5.487e-03             112.652           2.123e-02              86.715           5.477e+00     
-178.000         -90.000            4.064e-02           1.936e-02             112.734           2.128e-02              85.069           4.066e+00     
-177.000         -90.000            5.695e-02           3.560e-02             112.938           2.135e-02              82.452           3.809e+00     
-176.000         -90.000            6.856e-02           4.715e-02             113.324           2.141e-02              79.022           3.547e+00     
-175.000         -90.000            7.045e-02           4.904e-02             114.034           2.141e-02              74.962           3.130e+00     
-174.000         -90.000            6.177e-02           4.053e-02             115.383           2.124e-02              70.448           2.595e+00     
-173.000         -90.000            4.618e-02           2.538e-02             118.201           2.081e-02              65.624           2.041e+00     
-172.000         -90.000            3.023e-02           1.023e-02             125.575           2.000e-02              60.594           1.766e+00     
-171.000         -90.000            2.048e-02           1.719e-03             160.477           1.876e-02              55.411           3.444e+00     
-170.000         -90.000            2.067e-02           3.615e-03             252.426           1.705e-02              50.092           6.780e+00     
-169.000         -90.000            3.019e-02           1.524e-02             270.959           1.495e-02              44.624           2.337e+00     
-168.000         -90.000            4.438e-02           3.181e-02             276.507           1.257e-02              38.983           2.170e+00     
-167.000         -90.000            5.659e-02           4.650e-02             279.497           1.009e-02              33.152           2.443e+00     
-166.000         -90.000            6.104e-02           5.337e-02             282.020           7.669e-03              27.139           2.763e+00     
-165.000         -90.000            5.532e-02           4.984e-02             285.125           5.480e-03              21.017           3.036e+00     
-164.000         -90.000            4.136e-02           3.773e-02             290.096           3.630e-03              14.984           3.239e+00     
-163.000         -90.000            2.460e-02           2.242e-02             299.736           2.178e-03               9.515           3.462e+00     
