Theta [deg.]  Phi   [deg.]  Abs(Dir.)[      ]   Abs(Theta)[      ]  Phase(Theta)[deg.]  Abs(Phi  )[      ]  Phase(Phi  )[deg.]  Ax.Ratio[      ]    
------------------------------------------------------------------------------------------------------------------------------------------------------
-180.000         -90.000            2.202e-02           3.565e-07             192.735           2.202e-02             180.727           3.162e+02     
-179.000         -90.000            2.764e-02           5.637e-03             175.113           2.200e-02             180.226           2.781e+01     
-178.000         -90.000            4.195e-02           2.002e-02             175.159           2.193e-02             178.764           3.181e+01     
-177.000         -90.000            5.891e-02           3.710e-02             175.365           2.181e-02             176.418           1.126e+02     
-176.000         -90.000            7.135e-02           4.976e-02             175.769           2.160e-02             173.305           5.061e+01     
-175.000         -90.000            7.398e-02           5.273e-02             176.504           2.125e-02             169.557           1.822e+01     
-174.000         -90.000            6.558e-02           4.487e-02             177.868           2.070e-02             165.311           9.794e+00     
-173.000         -90.000            4.946e-02           2.957e-02             180.610           1.989e-02             160.680           5.811e+00     
-172.000         -90.000            3.206e-02           1.331e-02             187.259           1.874e-02             155.750           3.606e+00     
-171.000         -90.000            2.017e-02           2.922e-03             212.827           1.725e-02             150.577           2.861e+00     
-170.000         -90.000            1.817e-02           2.747e-03             301.993           1.542e-02             145.186           6.944e+00     
-169.000         -90.000            2.620e-02           1.287e-02             329.225           1.333e-02             139.590           1.187e+01     
-168.000         -90.000            4.026e-02           2.917e-02             336.562           1.109e-02             133.792           5.605e+00     
-167.000         -90.000            5.386e-02           4.503e-02             340.193           8.824e-03             127.820           4.839e+00     
-166.000         -90.000            6.084e-02           5.416e-02             342.980           6.674e-03             121.751           4.639e+00     
-165.000         -90.000            5.789e-02           5.313e-02             346.119           4.752e-03             115.720           4.506e+00     
-164.000         -90.000            4.588e-02           4.275e-02             350.791           3.133e-03             110.062           4.313e+00     
-163.000         -90.000            2.950e-02           2.764e-02             359.236           1.860e-03             105.465           4.037e+00     
